##TITLE=2 hcl
##$NOTE=11.03.2023 11:09:3 ^0 x10 v:1 [Без приставки]
##$ITAB=-1,-1
##FIRSTX=499.643
##DELTAX=1.92912
##NPOINTS=2333
##XUNITS=1/CM
##YUNITS=ABSORBANCE
499.643	0.171663
501.572	0.049666
503.501	0.0298454
505.43	0.0249201
507.36	-0.0468149
509.289	-0.153691
511.218	-0.139223
513.147	-0.0223874
515.076	0.188335
517.005	0.27227
518.934	0.240026
520.863	0.0659641
522.792	-0.0492935
524.722	0.00129002
526.651	0.0412364
528.58	-0.0206907
530.509	-0.0768513
532.438	-0.0751078
534.367	-0.0616832
536.296	0.0170773
538.225	0.0959168
540.155	0.0362363
542.084	-0.0432517
544.013	-0.139141
545.942	-0.152298
547.871	-0.262487
549.8	-0.267103
551.729	-0.155883
553.658	-0.136686
555.588	-0.0854169
557.517	-0.150034
559.446	-0.125875
561.375	-0.053588
563.304	-0.0235304
565.233	0.0233151
567.162	0.0829003
569.091	0.0378769
571.021	0.0119032
572.95	-0.00823418
574.879	-0.0556439
576.808	-0.0392252
578.737	-0.0543304
580.666	-0.0846518
582.595	-0.0643433
584.524	-0.0632368
586.454	-0.0395143
588.383	-0.0184591
590.312	0.0161847
592.241	0.00619248
594.17	-0.129355
596.099	-0.0539268
598.028	0.00398177
599.957	-0.0878513
601.887	-0.148808
603.816	-0.141243
605.745	-0.0279055
607.674	0.0170832
609.603	-0.0529701
611.532	-0.063831
613.461	-0.00476809
615.39	-0.00603237
617.32	-0.0465486
619.249	-0.0140749
621.178	-0.0308361
623.107	-0.0655462
625.036	-0.0570226
626.965	-0.111139
628.894	-0.136087
630.823	-0.15042
632.753	-0.161271
634.682	-0.193346
636.611	-0.0952325
638.54	0.0892469
640.469	0.0594923
642.398	-0.130756
644.327	-0.252298
646.256	-0.0837715
648.186	0.207998
650.115	0.30326
652.044	0.455069
653.973	0.766815
655.902	0.439275
657.831	0.183294
659.76	-0.017057
661.689	-0.172335
663.619	-0.244356
665.548	-0.155708
667.477	-0.103343
669.406	-0.117827
671.335	-0.131537
673.264	-0.181561
675.193	-0.271856
677.122	-0.289817
679.052	-0.259197
680.981	-0.280682
682.91	-0.209233
684.839	-0.00373846
686.768	0.0188575
688.697	0.019224
690.626	-0.0318157
692.555	-0.0720993
694.485	-0.149286
696.414	-0.143698
698.343	0.0605765
700.272	0.141208
702.201	0.25436
704.13	0.337012
706.059	0.361005
707.988	0.227137
709.917	0.0907223
711.847	-0.0608615
713.776	-0.0933809
715.705	-0.0378662
717.634	0.144161
719.563	0.225239
721.492	-0.00710074
723.421	0.0965711
725.35	0.0721404
727.28	0.148647
729.209	0.312588
731.138	0.194387
733.067	0.0487637
734.996	-0.086546
736.925	-0.248272
738.854	-0.132359
740.783	-0.0376617
742.713	0.0381235
744.642	0.00603488
746.571	-0.104646
748.5	-0.0447633
750.429	-0.0332419
752.358	0.103163
754.287	0.094444
756.216	0.018183
758.146	-0.100333
760.075	-0.0692629
762.004	0.136981
763.933	0.073893
765.862	0.0316511
767.791	-0.165702
769.72	-0.192317
771.649	0.10571
773.579	0.186161
775.508	0.0709831
777.437	0.137092
779.366	0.180728
781.295	0.0881159
783.224	0.0472241
785.153	0.0925846
787.082	0.134059
789.012	0.043384
790.941	-0.0612019
792.87	-0.0491227
794.799	-0.186879
796.728	-0.133513
798.657	0.0382738
800.586	-0.0243542
802.515	-0.0150643
804.445	0.114392
806.374	0.235555
808.303	0.130404
810.232	0.0143002
812.161	0.0423805
814.09	0.0543952
816.019	0.0682565
817.948	0.150963
819.878	0.190569
821.807	0.110324
823.736	-0.0126155
825.665	-0.113918
827.594	-0.160864
829.523	-0.0553964
831.452	-0.0296419
833.381	-0.0816304
835.311	-0.0924965
837.24	-0.116446
839.169	-0.113043
841.098	-0.045666
843.027	-0.012718
844.956	-0.0640244
846.885	-0.0989491
848.814	-0.00119834
850.744	0.120234
852.673	0.0594881
854.602	-0.0488579
856.531	-0.00333247
858.46	-0.0304954
860.389	-0.073351
862.318	-0.0549427
864.247	-0.0336421
866.177	-0.0737095
868.106	-0.157937
870.035	-0.133665
871.964	-0.0228656
873.893	-0.0252205
875.822	0.00346819
877.751	-0.00516141
879.68	-0.0869917
881.609	0.0363357
883.539	0.2247
885.468	0.122852
887.397	-0.0578999
889.326	-0.0794092
891.255	0.0349507
893.184	0.120347
895.113	0.086917
897.042	0.0165445
898.972	-0.0884679
900.901	-0.0901131
902.83	-0.0218583
904.759	-0.103105
906.688	-0.197509
908.617	-0.0594611
910.546	0.125325
912.475	0.211467
914.405	0.215161
916.334	0.0483134
918.263	-0.00693499
920.192	0.144902
922.121	0.236074
924.05	0.098751
925.979	0.0350214
927.908	-0.016068
929.838	-0.106926
931.767	0.00532192
933.696	-3.58334e-005
935.625	0.0741365
937.554	0.198221
939.483	0.32914
941.412	0.257345
943.341	0.1074
945.271	0.119604
947.2	0.0609308
949.129	0.030658
951.058	-0.105796
952.987	-0.153956
954.916	-0.064979
956.845	0.00517178
958.774	-0.0628342
960.704	-0.0783218
962.633	-0.0860944
964.562	0.0516432
966.491	0.124358
968.42	0.0504579
970.349	0.0748122
972.278	0.19666
974.207	0.272332
976.137	0.18044
978.066	0.142856
979.995	0.216913
981.924	0.147514
983.853	0.107123
985.782	-0.0184979
987.711	-0.175617
989.64	-0.33815
991.57	-0.247717
993.499	-0.0813585
995.428	0.0117004
997.357	0.161436
999.286	0.131036
1001.22	0.183868
1003.14	0.261746
1005.07	0.105418
1007	0.0587938
1008.93	0.162126
1010.86	0.178077
1012.79	0.165832
1014.72	0.15892
1016.65	0.0343082
1018.58	0.0421474
1020.51	0.229495
1022.44	0.278968
1024.36	0.185027
1026.29	0.15388
1028.22	0.0514494
1030.15	-0.043834
1032.08	-0.0862366
1034.01	-0.0365616
1035.94	0.000596186
1037.87	0.159006
1039.8	0.23506
1041.73	0.338602
1043.66	0.158312
1045.58	0.00709413
1047.51	0.0162925
1049.44	0.0361403
1051.37	-0.0902157
1053.3	-0.237949
1055.23	-0.112532
1057.16	0.00609749
1059.09	-0.00819485
1061.02	0.00960418
1062.95	0.091658
1064.88	0.0886252
1066.81	0.0614734
1068.73	0.158529
1070.66	0.297304
1072.59	0.150353
1074.52	-0.0312698
1076.45	-0.032813
1078.38	0.140309
1080.31	0.27522
1082.24	0.296145
1084.17	0.238001
1086.1	0.114441
1088.03	0.0869901
1089.95	0.156683
1091.88	0.104275
1093.81	0.138302
1095.74	0.290423
1097.67	0.226304
1099.6	0.236711
1101.53	0.238705
1103.46	0.151762
1105.39	0.0177372
1107.32	-0.0712312
1109.25	-0.0828031
1111.18	0.00527073
1113.1	0.0859357
1115.03	0.0754752
1116.96	0.0464389
1118.89	0.113656
1120.82	0.105613
1122.75	0.0462624
1124.68	0.0929012
1126.61	0.14442
1128.54	-0.0719676
1130.47	-0.175713
1132.4	-0.139209
1134.32	0.0387788
1136.25	0.192058
1138.18	0.140526
1140.11	0.269677
1142.04	0.195481
1143.97	-0.0389914
1145.9	-0.0537188
1147.83	0.137056
1149.76	0.238521
1151.69	0.343644
1153.62	0.38775
1155.55	0.339693
1157.47	0.227684
1159.4	0.185479
1161.33	0.220237
1163.26	0.351547
1165.19	0.305919
1167.12	0.127597
1169.05	-0.0256882
1170.98	-0.0798668
1172.91	-0.102629
1174.84	-0.0365912
1176.77	0.0445137
1178.69	0.108769
1180.62	0.203925
1182.55	0.19934
1184.48	0.0202656
1186.41	-0.169792
1188.34	-0.0937257
1190.27	0.0813982
1192.2	0.158281
1194.13	0.0212912
1196.06	-0.067076
1197.99	-0.116489
1199.91	0.0462271
1201.84	0.112329
1203.77	0.120416
1205.7	0.072637
1207.63	0.0495815
1209.56	0.0801085
1211.49	-0.0274448
1213.42	-0.025722
1215.35	0.0646941
1217.28	0.0733899
1219.21	0.141429
1221.14	0.216109
1223.06	0.242667
1224.99	0.166854
1226.92	0.145221
1228.85	0.214245
1230.78	0.234897
1232.71	0.106203
1234.64	-0.107081
1236.57	-0.202687
1238.5	-0.252546
1240.43	-0.232197
1242.36	-0.0999588
1244.28	-0.086873
1246.21	-0.0968552
1248.14	0.0843586
1250.07	0.0364421
1252	-0.0276596
1253.93	-0.00366797
1255.86	-0.011578
1257.79	-0.104438
1259.72	-0.14458
1261.65	-0.176054
1263.58	-0.182477
1265.51	-0.108962
1267.43	-0.0731057
1269.36	0.0364256
1271.29	0.017994
1273.22	-0.0318437
1275.15	0.0745851
1277.08	0.146554
1279.01	0.0125658
1280.94	-0.11005
1282.87	-0.00625727
1284.8	0.169289
1286.73	0.113679
1288.65	0.0921105
1290.58	0.0344297
1292.51	-0.034244
1294.44	-0.14414
1296.37	-0.0830424
1298.3	0.0234289
1300.23	0.11829
1302.16	0.152881
1304.09	0.161717
1306.02	0.10846
1307.95	0.0856544
1309.87	0.136539
1311.8	0.16653
1313.73	0.207838
1315.66	0.225063
1317.59	0.254376
1319.52	0.263372
1321.45	0.30758
1323.38	0.172246
1325.31	-0.0281739
1327.24	0.040092
1329.17	-0.124821
1331.1	-0.197341
1333.02	-0.116466
1334.95	-0.0990912
1336.88	-0.215576
1338.81	-0.357801
1340.74	-0.255158
1342.67	-0.212276
1344.6	-0.0450422
1346.53	0.128524
1348.46	0.0875891
1350.39	0.0662255
1352.32	0.0493639
1354.24	0.0842216
1356.17	0.204294
1358.1	0.28042
1360.03	0.178235
1361.96	0.0916116
1363.89	0.0788037
1365.82	0.121973
1367.75	0.0614041
1369.68	0.0575906
1371.61	0.11146
1373.54	0.165233
1375.47	0.107486
1377.39	0.120432
1379.32	0.191282
1381.25	0.278572
1383.18	0.30752
1385.11	0.118125
1387.04	0.0356272
1388.97	0.0169323
1390.9	-0.0262015
1392.83	0.011167
1394.76	0.0855184
1396.69	0.203164
1398.61	0.365974
1400.54	0.280033
1402.47	0.0913552
1404.4	-0.0502018
1406.33	-0.0230961
1408.26	-0.116447
1410.19	-0.104539
1412.12	-0.0167692
1414.05	-0.0450281
1415.98	-0.257952
1417.91	-0.208088
1419.83	-0.0917315
1421.76	0.0175169
1423.69	0.0366748
1425.62	-0.109586
1427.55	-0.232277
1429.48	-0.228368
1431.41	-0.170008
1433.34	-0.0313377
1435.27	0.178869
1437.2	0.105324
1439.13	0.114592
1441.06	-0.0494225
1442.98	-0.0469592
1444.91	0.135728
1446.84	0.275777
1448.77	0.0777716
1450.7	-0.16183
1452.63	-0.233955
1454.56	-0.26761
1456.49	-0.123799
1458.42	-0.196753
1460.35	-0.221896
1462.28	-0.146319
1464.2	0.035606
1466.13	0.140075
1468.06	0.108464
1469.99	-0.0320231
1471.92	0.00453696
1473.85	0.153894
1475.78	0.0819021
1477.71	-0.0247371
1479.64	-0.00866875
1481.57	-0.0238256
1483.5	0.00392355
1485.43	0.166059
1487.35	0.179952
1489.28	0.199045
1491.21	0.0237584
1493.14	0.0040539
1495.07	0.0410089
1497	0.124139
1498.93	0.225165
1500.86	0.255624
1502.79	0.100325
1504.72	-0.0848552
1506.65	-0.268079
1508.57	-0.11849
1510.5	0.0244906
1512.43	0.202592
1514.36	0.239146
1516.29	0.166805
1518.22	0.0625625
1520.15	-0.00729255
1522.08	-0.0484741
1524.01	0.0107315
1525.94	-0.102844
1527.87	-0.138377
1529.8	-0.0486803
1531.72	0.0566832
1533.65	0.0496004
1535.58	-0.0544392
1537.51	-0.0866894
1539.44	-0.00769973
1541.37	0.266042
1543.3	0.403871
1545.23	0.210532
1547.16	0.143662
1549.09	-0.0547285
1551.02	-0.182958
1552.94	0.0487097
1554.87	0.127329
1556.8	0.0832527
1558.73	-0.041694
1560.66	-0.0413516
1562.59	0.0447317
1564.52	0.191649
1566.45	0.284554
1568.38	0.219298
1570.31	0.148355
1572.24	0.189234
1574.16	0.142087
1576.09	0.00564992
1578.02	0.0715409
1579.95	0.0335891
1581.88	-0.0287763
1583.81	0.00311924
1585.74	0.1053
1587.67	0.122103
1589.6	0.0369268
1591.53	0.161584
1593.46	0.161832
1595.39	0.133761
1597.31	-0.00199635
1599.24	-0.0157448
1601.17	0.08058
1603.1	0.132899
1605.03	0.144164
1606.96	0.105811
1608.89	0.0954303
1610.82	0.173516
1612.75	0.423635
1614.68	0.428374
1616.61	0.0816979
1618.53	-0.188913
1620.46	-0.236835
1622.39	-0.168714
1624.32	-0.00643776
1626.25	0.134182
1628.18	0.052224
1630.11	-0.0451824
1632.04	-0.0501075
1633.97	-0.0129639
1635.9	-0.0809126
1637.83	0.0715113
1639.76	0.0114561
1641.68	-0.0503478
1643.61	-0.126697
1645.54	-0.101401
1647.47	-0.0934118
1649.4	-0.0116845
1651.33	0.112619
1653.26	0.141196
1655.19	0.120184
1657.12	0.185276
1659.05	0.188075
1660.98	0.0492273
1662.9	-0.0407159
1664.83	-0.189268
1666.76	-0.11397
1668.69	0.109627
1670.62	0.253684
1672.55	0.209326
1674.48	0.0547205
1676.41	-0.0807783
1678.34	-0.0311568
1680.27	-0.075033
1682.2	0.093483
1684.12	0.095261
1686.05	0.101373
1687.98	0.100612
1689.91	0.0661405
1691.84	0.0147211
1693.77	-0.0228614
1695.7	0.030137
1697.63	0.103318
1699.56	0.205073
1701.49	0.142329
1703.42	-0.0444536
1705.35	-0.0900116
1707.27	0.0526829
1709.2	0.2104
1711.13	0.205152
1713.06	0.097913
1714.99	-0.0348175
1716.92	-0.00577778
1718.85	0.0753144
1720.78	0.0445713
1722.71	0.0552942
1724.64	0.149314
1726.57	0.121512
1728.49	-0.0383502
1730.42	-0.187176
1732.35	-0.160662
1734.28	-0.0893303
1736.21	-0.0816305
1738.14	-0.0565475
1740.07	-0.043907
1742	-0.0392312
1743.93	0.0471151
1745.86	0.27277
1747.79	0.492743
1749.72	0.169177
1751.64	0.00990065
1753.57	0.0964365
1755.5	0.0616168
1757.43	-0.0606489
1759.36	-0.0615362
1761.29	0.0135644
1763.22	0.0126305
1765.15	0.0176677
1767.08	0.0696254
1769.01	0.0818638
1770.94	-0.0179364
1772.86	-0.0886931
1774.79	-0.00582861
1776.72	-0.00565029
1778.65	-0.093476
1780.58	-0.162764
1782.51	-0.221448
1784.44	-0.0678403
1786.37	-0.00461931
1788.3	-0.0203288
1790.23	-0.0606845
1792.16	0.0785044
1794.08	0.108502
1796.01	0.0441429
1797.94	-0.0307678
1799.87	-0.0370224
1801.8	-0.00330496
1803.73	-0.0119446
1805.66	-0.041629
1807.59	-0.0664477
1809.52	-0.104918
1811.45	0.030884
1813.38	0.257174
1815.31	0.194199
1817.23	-0.0642227
1819.16	-0.30574
1821.09	-0.278752
1823.02	-0.0670181
1824.95	0.0885677
1826.88	0.0714966
1828.81	0.0387121
1830.74	0.0442242
1832.67	-0.0152414
1834.6	0.0160868
1836.53	0.138937
1838.45	0.179577
1840.38	0.0978535
1842.31	-0.0829619
1844.24	-0.416839
1846.17	-0.496791
1848.1	-0.333755
1850.03	-0.0603292
1851.96	0.0483941
1853.89	0.0576228
1855.82	0.00876044
1857.75	-0.102871
1859.68	-0.222323
1861.6	-0.348324
1863.53	-0.377716
1865.46	-0.279664
1867.39	-0.247502
1869.32	-0.372369
1871.25	-0.424905
1873.18	-0.152299
1875.11	-0.00799219
1877.04	0.144985
1878.97	0.0484136
1880.9	-0.0408078
1882.82	-0.0367097
1884.75	-0.0601853
1886.68	-0.203069
1888.61	-0.169051
1890.54	-0.209027
1892.47	-0.0934515
1894.4	-0.0787249
1896.33	0.0262496
1898.26	0.0856903
1900.19	0.0246525
1902.12	-0.0916542
1904.05	-0.218028
1905.97	-0.0895059
1907.9	-0.0420816
1909.83	-0.0478792
1911.76	-0.108444
1913.69	-0.0770028
1915.62	-0.112845
1917.55	-0.134436
1919.48	-0.137711
1921.41	-0.14791
1923.34	-0.0273232
1925.27	0.140541
1927.19	0.250587
1929.12	0.243994
1931.05	0.219368
1932.98	0.165571
1934.91	0.125021
1936.84	-0.0332681
1938.77	-0.187884
1940.7	-0.0508318
1942.63	0.016102
1944.56	0.0742878
1946.49	0.106971
1948.41	0.12548
1950.34	-0.0134775
1952.27	-0.141764
1954.2	-0.253983
1956.13	-0.231639
1958.06	-0.202054
1959.99	-0.0826917
1961.92	-0.0490088
1963.85	-0.0704978
1965.78	-0.142191
1967.71	-0.155974
1969.64	-0.165553
1971.56	-0.127213
1973.49	-0.0517972
1975.42	0.00885652
1977.35	0.0127325
1979.28	0.0418952
1981.21	0.0864808
1983.14	0.1232
1985.07	0.0795322
1987	0.01119
1988.93	0.0553559
1990.86	0.131955
1992.78	0.319496
1994.71	0.179891
1996.64	0.00186046
1998.57	0.00945906
2000.5	0.103921
2002.43	0.122971
2004.36	0.015136
2006.29	-0.0775547
2008.22	-0.22243
2010.15	-0.00728196
2012.08	0.165722
2014.01	0.134637
2015.93	-0.0150072
2017.86	-0.0946496
2019.79	-0.137631
2021.72	-0.10346
2023.65	-0.0583451
2025.58	-0.0806095
2027.51	0.0333054
2029.44	0.125917
2031.37	0.13997
2033.3	0.0892411
2035.23	0.028998
2037.15	-0.0573604
2039.08	-0.0474668
2041.01	0.00346376
2042.94	0.0574041
2044.87	0.0446366
2046.8	0.0853389
2048.73	0.247923
2050.66	0.302391
2052.59	0.137028
2054.52	-0.0469071
2056.45	-0.373848
2058.37	-0.302125
2060.3	-0.248522
2062.23	-0.103134
2064.16	-0.0067585
2066.09	0.0352961
2068.02	0.0432255
2069.95	-0.0437793
2071.88	-0.0493621
2073.81	0.0422578
2075.74	0.190931
2077.67	0.264733
2079.6	0.202606
2081.52	0.0708362
2083.45	-0.0303397
2085.38	0.000144732
2087.31	0.0628637
2089.24	0.0550783
2091.17	-0.0130694
2093.1	-0.155651
2095.03	-0.294059
2096.96	-0.0490192
2098.89	0.157976
2100.82	0.343046
2102.74	0.271271
2104.67	0.265881
2106.6	0.238484
2108.53	0.182265
2110.46	0.129235
2112.39	0.0861859
2114.32	0.0594468
2116.25	0.0552645
2118.18	0.0696599
2120.11	0.0872316
2122.04	0.0949693
2123.97	0.0936892
2125.89	0.089689
2127.82	0.0838111
2129.75	0.0747263
2131.68	0.0659194
2133.61	0.0631397
2135.54	0.0671891
2137.47	0.0737874
2139.4	0.0792574
2141.33	0.0828894
2143.26	0.08426
2145.19	0.0822135
2147.11	0.077557
2149.04	0.0736467
2150.97	0.0727435
2152.9	0.0737262
2154.83	0.0743804
2156.76	0.0741341
2158.69	0.0732425
2160.62	0.0710349
2162.55	0.0670981
2164.48	0.0633788
2166.41	0.0628214
2168.33	0.0657249
2170.26	0.0690966
2172.19	0.0699915
2174.12	0.0684457
2176.05	0.06659
2177.98	0.065716
2179.91	0.0651036
2181.84	0.0634771
2183.77	0.0608996
2185.7	0.0589625
2187.63	0.0592537
2189.56	0.0616055
2191.48	0.0638367
2193.41	0.0636643
2195.34	0.0610785
2197.27	0.0584498
2199.2	0.0579633
2201.13	0.0591958
2203.06	0.059872
2204.99	0.0589777
2206.92	0.0581763
2208.85	0.0596158
2210.78	0.0629917
2212.7	0.0657728
2214.63	0.066192
2216.56	0.0649273
2218.49	0.0636199
2220.42	0.0627407
2222.35	0.0616991
2224.28	0.0604907
2226.21	0.0600012
2228.14	0.0604451
2230.07	0.0604921
2232	0.0587881
2233.93	0.0559905
2235.85	0.0543817
2237.78	0.0550907
2239.71	0.0562912
2241.64	0.0551534
2243.57	0.0513313
2245.5	0.0472384
2247.43	0.0447532
2249.36	0.043197
2251.29	0.0414949
2253.22	0.0408619
2255.15	0.0432484
2257.07	0.0475878
2259	0.0501068
2260.93	0.0491756
2262.86	0.0479684
2264.79	0.0507483
2266.72	0.057249
2268.65	0.0623816
2270.58	0.0616613
2272.51	0.0554696
2274.44	0.0477984
2276.37	0.0421964
2278.29	0.0396757
2280.22	0.0397538
2282.15	0.0418445
2284.08	0.0451154
2286.01	0.0481818
2287.94	0.0499733
2289.87	0.050571
2291.8	0.050652
2293.73	0.0504972
2295.66	0.0501019
2297.59	0.0498087
2299.52	0.0499429
2301.44	0.0501023
2303.37	0.0497915
2305.3	0.049684
2307.23	0.0511545
2309.16	0.0541817
2311.09	0.0567822
2313.02	0.0572712
2314.95	0.0562737
2316.88	0.0556977
2318.81	0.0563846
2320.74	0.0575982
2322.66	0.0583919
2324.59	0.0584574
2326.52	0.057684
2328.45	0.055944
2330.38	0.0535966
2332.31	0.0515262
2334.24	0.0504162
2336.17	0.0503101
2338.1	0.0509282
2340.03	0.0520202
2341.96	0.0532904
2343.89	0.0544077
2345.81	0.055339
2347.74	0.0563135
2349.67	0.0574511
2351.6	0.058644
2353.53	0.059667
2355.46	0.0604443
2357.39	0.0612485
2359.32	0.0623183
2361.25	0.063288
2363.18	0.0633361
2365.11	0.0620067
2367.03	0.0596745
2368.96	0.0571075
2370.89	0.0549015
2372.82	0.0533801
2374.75	0.0526811
2376.68	0.0526466
2378.61	0.0526938
2380.54	0.052079
2382.47	0.0504684
2384.4	0.0482775
2386.33	0.0464477
2388.26	0.0457758
2390.18	0.0462692
2392.11	0.0471279
2394.04	0.0475003
2395.97	0.0472891
2397.9	0.047056
2399.83	0.047135
2401.76	0.0471704
2403.69	0.0467409
2405.62	0.0461172
2407.55	0.0459367
2409.48	0.0462396
2411.4	0.0463592
2413.33	0.0458838
2415.26	0.0452436
2417.19	0.045064
2419.12	0.0453266
2421.05	0.0455528
2422.98	0.0455575
2424.91	0.045569
2426.84	0.0457027
2428.77	0.0457599
2430.7	0.0456012
2432.62	0.0453646
2434.55	0.0451957
2436.48	0.045032
2438.41	0.0447955
2440.34	0.0445744
2442.27	0.0444658
2444.2	0.0444231
2446.13	0.0444265
2448.06	0.0446335
2449.99	0.0451477
2451.92	0.0457358
2453.85	0.0459967
2455.77	0.0458042
2457.7	0.0454327
2459.63	0.0452465
2461.56	0.0453832
2463.49	0.045719
2465.42	0.0460087
2467.35	0.0460519
2469.28	0.0458415
2471.21	0.0455769
2473.14	0.0454725
2475.07	0.0455753
2476.99	0.0458214
2478.92	0.0461824
2480.85	0.0466096
2482.78	0.0468907
2484.71	0.0467669
2486.64	0.0462444
2488.57	0.0456504
2490.5	0.0453195
2492.43	0.0453212
2494.36	0.0455198
2496.29	0.0457605
2498.22	0.0459202
2500.14	0.0459031
2502.07	0.04572
2504	0.0455431
2505.93	0.045586
2507.86	0.0459127
2509.79	0.0463878
2511.72	0.0468014
2513.65	0.0470256
2515.58	0.0470599
2517.51	0.0469471
2519.44	0.0466865
2521.36	0.0462904
2523.29	0.0459101
2525.22	0.0457689
2527.15	0.0458867
2529.08	0.0459848
2531.01	0.0458078
2532.94	0.0454789
2534.87	0.0453764
2536.8	0.0456787
2538.73	0.0461877
2540.66	0.0466077
2542.58	0.0468321
2544.51	0.0469093
2546.44	0.0468773
2548.37	0.0467426
2550.3	0.0465524
2552.23	0.0463884
2554.16	0.0463038
2556.09	0.0463017
2558.02	0.0463599
2559.95	0.0464553
2561.88	0.0465865
2563.81	0.0467895
2565.73	0.0471131
2567.66	0.04755
2569.59	0.0479751
2571.52	0.0481664
2573.45	0.0479565
2575.38	0.0474341
2577.31	0.0469499
2579.24	0.0468106
2581.17	0.0469653
2583.1	0.0471087
2585.03	0.0470953
2586.95	0.0471003
2588.88	0.0473293
2590.81	0.0477514
2592.74	0.0482324
2594.67	0.048751
2596.6	0.04928
2598.53	0.0495651
2600.46	0.0492933
2602.39	0.0485139
2604.32	0.0476935
2606.25	0.0472799
2608.18	0.0473343
2610.1	0.0476363
2612.03	0.0479727
2613.96	0.0482054
2615.89	0.0482364
2617.82	0.0481492
2619.75	0.0482963
2621.68	0.0489281
2623.61	0.0496926
2625.54	0.0498463
2627.47	0.0491492
2629.4	0.0482367
2631.32	0.0478302
2633.25	0.0478835
2635.18	0.0478733
2637.11	0.0476451
2639.04	0.047431
2640.97	0.0472343
2642.9	0.0469532
2644.83	0.0471215
2646.76	0.0486196
2648.69	0.0512405
2650.62	0.0532937
2652.54	0.0533263
2654.47	0.0517792
2656.4	0.0502233
2658.33	0.0494054
2660.26	0.0488961
2662.19	0.0483376
2664.12	0.0479913
2666.05	0.0479802
2667.98	0.0480413
2669.91	0.0484583
2671.84	0.0502551
2673.77	0.0535774
2675.69	0.056473
2677.62	0.0565196
2679.55	0.05371
2681.48	0.0505081
2683.41	0.048896
2685.34	0.0485992
2687.27	0.0484503
2689.2	0.0481731
2691.13	0.0480434
2693.06	0.048075
2694.99	0.0488911
2696.91	0.0522278
2698.84	0.0585124
2700.77	0.0643782
2702.7	0.0650897
2704.63	0.0601455
2706.56	0.0539428
2708.49	0.0503654
2710.42	0.0494343
2712.35	0.0494976
2714.28	0.0498913
2716.21	0.0503294
2718.14	0.0504085
2720.06	0.0516416
2721.99	0.0573092
2723.92	0.0674727
2725.85	0.0758251
2727.78	0.0752906
2729.71	0.066656
2731.64	0.0573217
2733.57	0.0525571
2735.5	0.0519434
2737.43	0.0526455
2739.36	0.0526414
2741.28	0.0514064
2743.21	0.050869
2745.14	0.0555285
2747.07	0.0678941
2749	0.0827126
2750.93	0.0890556
2752.86	0.0817518
2754.79	0.0674971
2756.72	0.056334
2758.65	0.052177
2760.58	0.0527129
2762.51	0.0539425
2764.43	0.0535081
2766.36	0.052607
2768.29	0.0563032
2770.22	0.069288
2772.15	0.0886028
2774.08	0.101831
2776.01	0.0978653
2777.94	0.0800666
2779.87	0.0620353
2781.8	0.0532082
2783.73	0.0531328
2785.65	0.055528
2787.58	0.0554212
2789.51	0.0540911
2791.44	0.0582526
2793.37	0.0734163
2795.3	0.0959491
2797.23	0.111482
2799.16	0.106826
2801.09	0.0857047
2803.02	0.0644889
2804.95	0.0546217
2806.87	0.0550304
2808.8	0.057281
2810.73	0.0559118
2812.66	0.0545686
2814.59	0.0619062
2816.52	0.0817683
2818.45	0.106052
2820.38	0.117493
2822.31	0.106013
2824.24	0.0812749
2826.17	0.0612561
2828.1	0.0544214
2830.02	0.0560175
2831.95	0.0568366
2833.88	0.0547249
2835.81	0.0568325
2837.74	0.0705298
2839.67	0.0934484
2841.6	0.11164
2843.53	0.110445
2845.46	0.0907234
2847.39	0.0681434
2849.32	0.0560761
2851.24	0.0551667
2853.17	0.0571306
2855.1	0.0562738
2857.03	0.0562822
2858.96	0.0643443
2860.89	0.0806701
2862.82	0.0952436
2864.75	0.0963029
2866.68	0.0832059
2868.61	0.066723
2870.54	0.056843
2872.47	0.0548717
2874.39	0.0559215
2876.32	0.0559236
2878.25	0.0549331
2880.18	0.0545311
2882.11	0.0548398
2884.04	0.0549832
2885.97	0.0547146
2887.9	0.0544941
2889.83	0.0547399
2891.76	0.0554453
2893.69	0.0559486
2895.61	0.0555731
2897.54	0.0559191
2899.47	0.0616201
2901.4	0.0757009
2903.33	0.0928788
2905.26	0.10043
2907.19	0.0912871
2909.12	0.0737396
2911.05	0.061273
2912.98	0.0580204
2914.91	0.0584513
2916.83	0.0588805
2918.76	0.0648138
2920.69	0.0829085
2922.62	0.107733
2924.55	0.120942
2926.48	0.110269
2928.41	0.0859683
2930.34	0.0670186
2932.27	0.0603673
2934.2	0.0601395
2936.13	0.0614754
2938.06	0.0694737
2939.98	0.0903529
2941.91	0.116564
2943.84	0.127275
2945.77	0.111958
2947.7	0.085328
2949.63	0.0669407
2951.56	0.0610566
2953.49	0.0610751
2955.42	0.0649492
2957.35	0.0788468
2959.28	0.103662
2961.2	0.124266
2963.13	0.121834
2965.06	0.098914
2966.99	0.0755447
2968.92	0.0638234
2970.85	0.0612803
2972.78	0.0635171
2974.71	0.0733894
2976.64	0.093176
2978.57	0.112628
2980.5	0.114702
2982.43	0.097118
2984.35	0.0754461
2986.28	0.0627134
2988.21	0.0596481
2990.14	0.0628872
2992.07	0.072845
2994	0.0889802
2995.93	0.102246
2997.86	0.101224
2999.79	0.0866833
3001.72	0.0705398
3003.65	0.061595
3005.57	0.0604976
3007.5	0.0654233
3009.43	0.0754198
3011.36	0.0867297
3013.29	0.0914117
3015.22	0.0849764
3017.15	0.0725537
3019.08	0.0629242
3021.01	0.0601944
3022.94	0.063416
3024.87	0.0702178
3026.79	0.0777317
3028.72	0.0817241
3030.65	0.0789373
3032.58	0.0710531
3034.51	0.0635782
3036.44	0.0606216
3038.37	0.0624391
3040.3	0.0668912
3042.23	0.0712286
3044.16	0.0728517
3046.09	0.0705453
3048.02	0.0658792
3049.94	0.0622205
3051.87	0.061764
3053.8	0.0639817
3055.73	0.0666893
3057.66	0.0679306
3059.59	0.0669918
3061.52	0.0645136
3063.45	0.0621014
3065.38	0.0612967
3067.31	0.0623451
3069.24	0.0640608
3071.16	0.0650411
3073.09	0.0648054
3075.02	0.0638203
3076.95	0.062893
3078.88	0.062629
3080.81	0.0630652
3082.74	0.0636403
3084.67	0.0637511
3086.6	0.0634062
3088.53	0.063135
3090.46	0.06329
3092.39	0.0637004
3094.31	0.063992
3096.24	0.0639526
3098.17	0.0635613
3100.1	0.0629768
3102.03	0.0625954
3103.96	0.0628321
3105.89	0.0636652
3107.82	0.0645534
3109.75	0.0649388
3111.68	0.0647657
3113.61	0.0644623
3115.53	0.0645057
3117.46	0.0650186
3119.39	0.0656733
3121.32	0.0659743
3123.25	0.065757
3125.18	0.0654084
3127.11	0.0654564
3129.04	0.0659681
3130.97	0.0665232
3132.9	0.0667601
3134.83	0.0667232
3136.75	0.0666187
3138.68	0.0664945
3140.61	0.0663439
3142.54	0.0663166
3144.47	0.0665735
3146.4	0.0670197
3148.33	0.0674108
3150.26	0.0676881
3152.19	0.0679981
3154.12	0.0683813
3156.05	0.0686648
3157.98	0.068747
3159.9	0.0688077
3161.83	0.0690788
3163.76	0.0694867
3165.69	0.0696884
3167.62	0.0694779
3169.55	0.0690484
3171.48	0.0687933
3173.41	0.0689033
3175.34	0.0692207
3177.27	0.069459
3179.2	0.0694942
3181.12	0.0694159
3183.05	0.0693622
3184.98	0.0693999
3186.91	0.0695563
3188.84	0.0698489
3190.77	0.0702227
3192.7	0.0705308
3194.63	0.0706767
3196.56	0.0707509
3198.49	0.070922
3200.42	0.0711726
3202.35	0.0712665
3204.27	0.0710547
3206.2	0.0707334
3208.13	0.0706968
3210.06	0.0711346
3211.99	0.0718401
3213.92	0.072413
3215.85	0.0725789
3217.78	0.0723207
3219.71	0.0718368
3221.64	0.0714371
3223.57	0.0713585
3225.49	0.0715602
3227.42	0.0717446
3229.35	0.0716784
3231.28	0.0714614
3233.21	0.0713783
3235.14	0.0715506
3237.07	0.071893
3239	0.0723568
3240.93	0.0729681
3242.86	0.0735762
3244.79	0.0738454
3246.72	0.0736988
3248.64	0.0735655
3250.57	0.0739034
3252.5	0.0745596
3254.43	0.0749013
3256.36	0.0746359
3258.29	0.0742306
3260.22	0.0743464
3262.15	0.0750492
3264.08	0.0757794
3266.01	0.0760276
3267.94	0.0758577
3269.86	0.0757157
3271.79	0.0758641
3273.72	0.0761111
3275.65	0.076046
3277.58	0.0754603
3279.51	0.0745325
3281.44	0.0736852
3283.37	0.073309
3285.3	0.0735241
3287.23	0.0740891
3289.16	0.0745729
3291.08	0.0747221
3293.01	0.0746882
3294.94	0.0748184
3296.87	0.0752148
3298.8	0.0756127
3300.73	0.0757436
3302.66	0.0757148
3304.59	0.0759094
3306.52	0.0765353
3308.45	0.077371
3310.38	0.0779837
3312.31	0.0781291
3314.23	0.0778772
3316.16	0.0774022
3318.09	0.0767953
3320.02	0.0761337
3321.95	0.0756218
3323.88	0.0755128
3325.81	0.075861
3327.74	0.0764504
3329.67	0.07702
3331.6	0.0774797
3333.53	0.0778501
3335.45	0.0780974
3337.38	0.0781467
3339.31	0.0780015
3341.24	0.0777303
3343.17	0.0773861
3345.1	0.0770648
3347.03	0.0769976
3348.96	0.0773905
3350.89	0.0781257
3352.82	0.0787815
3354.75	0.0790239
3356.68	0.0788916
3358.6	0.0786757
3360.53	0.0786484
3362.46	0.0789234
3364.39	0.079383
3366.32	0.0796541
3368.25	0.0793782
3370.18	0.0786745
3372.11	0.0781549
3374.04	0.0782639
3375.97	0.0787197
3377.9	0.0788699
3379.82	0.0785293
3381.75	0.0781283
3383.68	0.0780377
3385.61	0.0781191
3387.54	0.078099
3389.47	0.078068
3391.4	0.0783072
3393.33	0.0787674
3395.26	0.0790003
3397.19	0.0786254
3399.12	0.0777082
3401.04	0.0767015
3402.97	0.0761366
3404.9	0.0762866
3406.83	0.0769539
3408.76	0.0775804
3410.69	0.0777156
3412.62	0.0774502
3414.55	0.0772995
3416.48	0.0776296
3418.41	0.0782946
3420.34	0.0788459
3422.27	0.0789911
3424.19	0.0787523
3426.12	0.078275
3428.05	0.0777137
3429.98	0.0772702
3431.91	0.0770718
3433.84	0.076966
3435.77	0.0766924
3437.7	0.0763457
3439.63	0.0763997
3441.56	0.0770856
3443.49	0.0779588
3445.41	0.078349
3447.34	0.0781452
3449.27	0.0777947
3451.2	0.0775512
3453.13	0.077194
3455.06	0.0765468
3456.99	0.0758752
3458.92	0.075554
3460.85	0.075581
3462.78	0.075714
3464.71	0.0758977
3466.64	0.0761799
3468.56	0.0762814
3470.49	0.0756814
3472.42	0.0742999
3474.35	0.0728572
3476.28	0.0722832
3478.21	0.0727837
3480.14	0.0736026
3482.07	0.073756
3484	0.073035
3485.93	0.0721496
3487.86	0.0718271
3489.78	0.0720283
3491.71	0.0722277
3493.64	0.0722455
3495.57	0.0723773
3497.5	0.0726696
3499.43	0.0726272
3501.36	0.0720176
3503.29	0.0715417
3505.22	0.0719318
3507.15	0.0726235
3509.08	0.0722883
3511	0.07063
3512.93	0.0688472
3514.86	0.068018
3516.79	0.0678932
3518.72	0.0677871
3520.65	0.0678272
3522.58	0.0685427
3524.51	0.069464
3526.44	0.0692101
3528.37	0.0674135
3530.3	0.0654344
3532.23	0.0645704
3534.15	0.0646078
3536.08	0.0644461
3538.01	0.0637082
3539.94	0.0632314
3541.87	0.0638742
3543.8	0.0652257
3545.73	0.0655596
3547.66	0.0635156
3549.59	0.0596569
3551.52	0.0557274
3553.45	0.0530834
3555.37	0.0520023
3557.3	0.0519624
3559.23	0.0524046
3561.16	0.0531544
3563.09	0.0542359
3565.02	0.0553884
3566.95	0.0557382
3568.88	0.0545298
3570.81	0.0521349
3572.74	0.0494683
3574.67	0.0473217
3576.6	0.0463266
3578.52	0.0467223
3580.45	0.0482827
3582.38	0.0507247
3584.31	0.053385
3586.24	0.0542708
3588.17	0.051529
3590.1	0.0467857
3592.03	0.0433176
3593.96	0.0423941
3595.89	0.042912
3597.82	0.0429442
3599.74	0.0419407
3601.67	0.0408569
3603.6	0.0403054
3605.53	0.0399674
3607.46	0.039528
3609.39	0.0394344
3611.32	0.0401694
3613.25	0.0411971
3615.18	0.0414533
3617.11	0.0401436
3619.04	0.0373581
3620.97	0.0343189
3622.89	0.0319782
3624.82	0.030079
3626.75	0.0276169
3628.68	0.0242599
3630.61	0.0222692
3632.54	0.0236114
3634.47	0.0269611
3636.4	0.0295088
3638.33	0.0289037
3640.26	0.0253602
3642.19	0.0212946
3644.11	0.0182644
3646.04	0.0164078
3647.97	0.016553
3649.9	0.0196853
3651.83	0.0230174
3653.76	0.0231808
3655.69	0.020376
3657.62	0.0177762
3659.55	0.0179276
3661.48	0.0191111
3663.41	0.0176377
3665.33	0.0123967
3667.26	0.00607948
3669.19	0.00253719
3671.12	0.00212864
3673.05	0.00260769
3674.98	0.00511288
3676.91	0.0128211
3678.84	0.0237213
3680.77	0.032939
3682.7	0.0385415
3684.63	0.0400077
3686.56	0.0354623
3688.48	0.0245802
3690.41	0.0144894
3692.34	0.0122308
3694.27	0.0148818
3696.2	0.0153671
3698.13	0.0103694
3700.06	0.00396782
3701.99	0.00375728
3703.92	0.0100957
3705.85	0.0163499
3707.78	0.0173316
3709.7	0.0135265
3711.63	0.0107593
3713.56	0.0120053
3715.49	0.014632
3717.42	0.0163521
3719.35	0.0168794
3721.28	0.0166641
3723.21	0.0161299
3725.14	0.0158233
3727.07	0.0163014
3729	0.0174553
3730.93	0.0182522
3732.85	0.0170219
3734.78	0.0134563
3736.71	0.0102989
3738.64	0.00918462
3740.57	0.00931928
3742.5	0.00966935
3744.43	0.00934011
3746.36	0.00759322
3748.29	0.00490132
3750.22	0.00363547
3752.15	0.00584241
3754.07	0.00999358
3756	0.0128367
3757.93	0.0128234
3759.86	0.0109678
3761.79	0.00957638
3763.72	0.00946049
3765.65	0.00944448
3767.58	0.00861806
3769.51	0.00794268
3771.44	0.00865388
3773.37	0.00999172
3775.29	0.0101764
3777.22	0.0083302
3779.15	0.00554085
3781.08	0.00398855
3783.01	0.00444566
3784.94	0.00567894
3786.87	0.00604894
3788.8	0.00494862
3790.73	0.00305852
3792.66	0.00155685
3794.59	0.00122727
3796.52	0.00208837
3798.44	0.00345216
3800.37	0.00440143
3802.3	0.00449214
3804.23	0.00398737
3806.16	0.00354368
3808.09	0.00370366
3810.02	0.00457994
3811.95	0.00601036
3813.88	0.00777121
3815.81	0.00942879
3817.74	0.0101299
3819.66	0.00931539
3821.59	0.0078324
3823.52	0.00698958
3825.45	0.00694203
3827.38	0.00696367
3829.31	0.00666825
3831.24	0.00666271
3833.17	0.00791686
3835.1	0.0103855
3837.03	0.0125201
3838.96	0.0126684
3840.89	0.0109356
3842.81	0.00877551
3844.74	0.00731076
3846.67	0.00692879
3848.6	0.00766833
3850.53	0.00919735
3852.46	0.010157
3854.39	0.00923643
3856.32	0.00785973
3858.25	0.00753802
3860.18	0.00839801
3862.11	0.00994688
3864.03	0.0110842
3865.96	0.0106873
3867.89	0.00866112
3869.82	0.00599597
3871.75	0.00423932
3873.68	0.00428908
3875.61	0.00584603
3877.54	0.00820044
3879.47	0.0102305
3881.4	0.0101526
3883.33	0.00726311
3885.25	0.00365637
3887.18	0.00203987
3889.11	0.00294966
3891.04	0.00484655
3892.97	0.00632204
3894.9	0.0075873
3896.83	0.00934219
3898.76	0.0112093
3900.69	0.011794
3902.62	0.0106323
3904.55	0.00921567
3906.48	0.00853909
3908.4	0.00838596
3910.33	0.00891468
3912.26	0.0109267
3914.19	0.0144854
3916.12	0.0174813
3918.05	0.0168233
3919.98	0.0119662
3921.91	0.00564423
3923.84	0.00115994
3925.77	-2.10141e-005
3927.7	0.00132732
3929.62	0.00337581
3931.55	0.00451876
3933.48	0.00422175
3935.41	0.00326591
3937.34	0.00295182
3939.27	0.0041806
3941.2	0.00695822
3943.13	0.010211
3945.06	0.0124423
3946.99	0.0127311
3948.92	0.0110336
3950.85	0.00809519
3952.77	0.00506038
3954.7	0.00274243
3956.63	0.00130707
3958.56	0.000537092
3960.49	0.000224155
3962.42	0.000425194
3964.35	0.00141438
3966.28	0.00325375
3968.21	0.00527978
3970.14	0.00618523
3972.07	0.00509009
3973.99	0.00273737
3975.92	0.00108567
3977.85	0.00125234
3979.78	0.00233667
3981.71	0.00272927
3983.64	0.00220122
3985.57	0.00207534
3987.5	0.00339339
3989.43	0.00554094
3991.36	0.00681603
3993.29	0.00609247
3995.22	0.00396392
3997.14	0.00242624
3999.07	0.00325021
4001	0.0061776
4002.93	0.00871284
4004.86	0.00841063
4006.79	0.00562495
4008.72	0.00317859
4010.65	0.00301185
4012.58	0.00428915
4014.51	0.00525674
4016.44	0.0057018
4018.36	0.00663689
4020.29	0.00825527
4022.22	0.00940753
4024.15	0.00900944
4026.08	0.00714687
4028.01	0.0047757
4029.94	0.00285724
4031.87	0.00183023
4033.8	0.00148015
4035.73	0.00125551
4037.66	0.000969495
4039.58	0.000998027
4041.51	0.00155124
4043.44	0.00216386
4045.37	0.00237978
4047.3	0.00251212
4049.23	0.0029915
4051.16	0.00336149
4053.09	0.00281269
4055.02	0.00156732
4056.95	0.000807426
4058.88	0.00115451
4060.81	0.00207009
4062.73	0.00292512
4064.66	0.00379982
4066.59	0.00483001
4068.52	0.00555696
4070.45	0.00555596
4072.38	0.00516022
4074.31	0.00486607
4076.24	0.00437032
4078.17	0.00296891
4080.1	0.000877987
4082.03	-0.000594231
4083.95	-0.00041583
4085.88	0.00109629
4087.81	0.00274079
4089.74	0.00367742
4091.67	0.00398349
4093.6	0.00415753
4095.53	0.00447906
4097.46	0.00490688
4099.39	0.00525851
4101.32	0.00529841
4103.25	0.00480733
4105.18	0.00374084
4107.1	0.0023133
4109.03	0.000920142
4110.96	5.95008e-005
4112.89	0.000254699
4114.82	0.00169852
4116.75	0.00373132
4118.68	0.0049655
4120.61	0.00441071
4122.54	0.00248394
4124.47	0.00069827
4126.4	0.000406396
4128.32	0.00188138
4130.25	0.00431344
4132.18	0.00627727
4134.11	0.00637659
4136.04	0.00421546
4137.97	0.00101684
4139.9	-0.00122701
4141.83	-0.0014497
4143.76	-0.000193832
4145.69	0.00124805
4147.62	0.00201987
4149.54	0.00204299
4151.47	0.00171401
4153.4	0.00165124
4155.33	0.0024065
4157.26	0.00397126
4159.19	0.00567882
4161.12	0.00684281
4163.05	0.00730666
4164.98	0.00714314
4166.91	0.00616128
4168.84	0.00426394
4170.77	0.00214717
4172.69	0.00092385
4174.62	0.000845756
4176.55	0.000952572
4178.48	0.00037196
4180.41	-0.000390524
4182.34	-4.04415e-005
4184.27	0.00172554
4186.2	0.00371226
4188.13	0.0046558
4190.06	0.00457713
4191.99	0.00437182
4193.91	0.00454305
4195.84	0.00494787
4197.77	0.00547728
4199.7	0.00612191
4201.63	0.00636045
4203.56	0.00546039
4205.49	0.00383233
4207.42	0.00327205
4209.35	0.00504017
4211.28	0.00809132
4213.21	0.0100657
4215.14	0.00987366
4217.06	0.00844316
4218.99	0.00695627
4220.92	0.00542211
4222.85	0.00346812
4224.78	0.00168633
4226.71	0.00125426
4228.64	0.00238297
4230.57	0.00397101
4232.5	0.00496671
4234.43	0.00551337
4236.36	0.00641233
4238.28	0.00766988
4240.21	0.00806116
4242.14	0.00643091
4244.07	0.00331064
4246	0.000843752
4247.93	0.000811034
4249.86	0.00284274
4251.79	0.00486403
4253.72	0.00530839
4255.65	0.00458617
4257.58	0.00417615
4259.5	0.00456964
4261.43	0.00467368
4263.36	0.00335017
4265.29	0.0010991
4267.22	-0.000290975
4269.15	0.000195724
4271.08	0.00168047
4273.01	0.00263631
4274.94	0.00273777
4276.87	0.00283331
4278.8	0.0031882
4280.73	0.0027129
4282.65	0.000488051
4284.58	-0.00257868
4286.51	-0.00443328
4288.44	-0.00416842
4290.37	-0.00292232
4292.3	-0.00229301
4294.23	-0.0025439
4296.16	-0.00272083
4298.09	-0.00197565
4300.02	-0.000291822
4301.95	0.00177901
4303.87	0.0035852
4305.8	0.00462341
4307.73	0.00470556
4309.66	0.00403655
4311.59	0.00304118
4313.52	0.00206625
4315.45	0.00125078
4317.38	0.000581401
4319.31	-2.07995e-005
4321.24	-0.000575766
4323.17	-0.000975056
4325.1	-0.00122379
4327.02	-0.00168865
4328.95	-0.00258469
4330.88	-0.00303456
4332.81	-0.00146539
4334.74	0.00228639
4336.67	0.00592332
4338.6	0.00684129
4340.53	0.00517669
4342.46	0.00350337
4344.39	0.00328415
4346.32	0.00322711
4348.24	0.00198415
4350.17	0.000707648
4352.1	0.00115466
4354.03	0.00238442
4355.96	0.00162669
4357.89	-0.00169422
4359.82	-0.00485296
4361.75	-0.00531526
4363.68	-0.00363538
4365.61	-0.00191285
4367.54	-0.000828307
4369.46	0.000377267
4371.39	0.00185103
4373.32	0.00264229
4375.25	0.00210243
4377.18	0.000650364
4379.11	-0.000902339
4381.04	-0.00200842
4382.97	-0.00238521
4384.9	-0.00210654
4386.83	-0.00175473
4388.76	-0.00194151
4390.69	-0.00271801
4392.61	-0.00378799
4394.54	-0.00491872
4396.47	-0.00557329
4398.4	-0.00463888
4400.33	-0.00160104
4402.26	0.0021011
4404.19	0.0040273
4406.12	0.0034222
4408.05	0.00211405
4409.98	0.00225504
4411.91	0.00390654
4413.83	0.0054648
4415.76	0.00578828
4417.69	0.00504882
4419.62	0.00373634
4421.55	0.00176629
4423.48	-0.000986251
4425.41	-0.00371171
4427.34	-0.00491167
4429.27	-0.00392531
4431.2	-0.00191579
4433.13	-0.000903716
4435.06	-0.00175589
4436.98	-0.0033978
4438.91	-0.0041975
4440.84	-0.00365094
4442.77	-0.0022585
4444.7	-0.000428015
4446.63	0.00152421
4448.56	0.00264715
4450.49	0.0019602
4452.42	4.2427e-005
4454.35	-0.00120476
4456.28	-0.00091201
4458.2	-0.000272629
4460.13	-0.00058789
4462.06	-0.00137796
4463.99	-0.00155705
4465.92	-0.0014553
4467.85	-0.00195331
4469.78	-0.00217889
4471.71	-0.000173296
4473.64	0.00379974
4475.57	0.00665741
4477.5	0.00611896
4479.43	0.00332207
4481.35	0.000866945
4483.28	-0.000390724
4485.21	-0.00113151
4487.14	-0.00119095
4489.07	0.000378836
4491	0.00299054
4492.93	0.00436443
4494.86	0.00336112
4496.79	0.00141628
4498.72	0.000415536
4500.65	0.000684674
4502.57	0.00188803
4504.5	0.00429184
4506.43	0.00758345
4508.36	0.00949926
4510.29	0.00772198
4512.22	0.0031145
4514.15	-0.000705345
4516.08	-0.00138995
4518.01	-0.000210074
4519.94	0.000187432
4521.87	-0.000701923
4523.79	-0.0011924
4525.72	-0.000233074
4527.65	0.00101058
4529.58	0.000605125
4531.51	-0.00171115
4533.44	-0.00416875
4535.37	-0.00498921
4537.3	-0.00410145
4539.23	-0.00261558
4541.16	-0.00120724
4543.09	0.000344235
4545.02	0.00216158
4546.94	0.00372889
4548.87	0.00478728
4550.8	0.00594687
4552.73	0.00761944
4554.66	0.00881057
4556.59	0.00797638
4558.52	0.00503596
4560.45	0.00159399
4562.38	-0.000898546
4564.31	-0.0023335
4566.24	-0.00323079
4568.16	-0.00376142
4570.09	-0.00387779
4572.02	-0.00373949
4573.95	-0.00349916
4575.88	-0.00302191
4577.81	-0.00217112
4579.74	-0.00114479
4581.67	-0.000416863
4583.6	-0.000622001
4585.53	-0.0022695
4587.46	-0.00485696
4589.39	-0.00643251
4591.31	-0.00514666
4593.24	-0.00169324
4595.17	0.000721455
4597.1	-0.000106886
4599.03	-0.00258481
4600.96	-0.00330493
4602.89	-0.00114616
4604.82	0.00184873
4606.75	0.00327035
4608.68	0.00257483
4610.61	0.000355557
4612.53	-0.00286859
4614.46	-0.00612836
4616.39	-0.00750692
4618.32	-0.00568538
4620.25	-0.00174588
4622.18	0.00155022
4624.11	0.00237708
4626.04	0.00134712
4627.97	0.000455834
4629.9	0.000987341
4631.83	0.00247677
4633.75	0.00335511
4635.68	0.00256947
4637.61	0.000705103
4639.54	-0.000576546
4641.47	-0.000387831
4643.4	0.000247259
4645.33	-0.000512153
4647.26	-0.00313734
4649.19	-0.00599053
4651.12	-0.00692739
4653.05	-0.00545169
4654.98	-0.00302183
4656.9	-0.00136208
4658.83	-0.000696802
4660.76	0.000197347
4662.69	0.00209551
4664.62	0.00387952
4666.55	0.00364494
4668.48	0.00123504
4670.41	-0.00123157
4672.34	-0.00179842
4674.27	-0.000984193
4676.2	-0.000858893
4678.12	-0.00204586
4680.05	-0.00299961
4681.98	-0.00228942
4683.91	-0.000189007
4685.84	0.00225502
4687.77	0.00463346
4689.7	0.00684525
4691.63	0.00800156
4693.56	0.00678812
4695.49	0.00305162
4697.42	-0.00151046
4699.35	-0.00459738
4701.27	-0.00536419
4703.2	-0.00521434
4705.13	-0.00624855
4707.06	-0.00853687
4708.99	-0.00931557
4710.92	-0.00603691
4712.85	-0.000215854
4714.78	0.00327754
4716.71	0.0016104
4718.64	-0.00234739
4720.57	-0.00310733
4722.49	0.00111391
4724.42	0.00661246
4726.35	0.00885161
4728.28	0.00727275
4730.21	0.00471892
4732.14	0.0034439
4734.07	0.00298486
4736	0.00187774
4737.93	0.000316191
4739.86	0.000155873
4741.79	0.00238263
4743.71	0.00531397
4745.64	0.00613818
4747.57	0.00402511
4749.5	0.000808429
4751.43	-0.00140401
4753.36	-0.00232389
4755.29	-0.00259089
4757.22	-0.0019727
4759.15	-5.61322e-005
4761.08	0.00185891
4763.01	0.00160098
4764.94	-0.00088761
4766.86	-0.003032
4768.79	-0.00267319
4770.72	-0.000398321
4772.65	0.00201978
4774.58	0.00409186
4776.51	0.00615942
4778.44	0.00760967
4780.37	0.00728238
4782.3	0.0053733
4784.23	0.00350903
4786.16	0.00292148
4788.08	0.00360311
4790.01	0.00505671
4791.94	0.00652711
4793.87	0.00647434
4795.8	0.00349591
4797.73	-0.00138357
4799.66	-0.004584
4801.59	-0.00333028
4803.52	0.00128176
4805.45	0.00514994
4807.38	0.00489355
4809.31	0.0005835
4811.23	-0.00474725
4813.16	-0.00776194
4815.09	-0.00736728
4817.02	-0.00514919
4818.95	-0.00309534
4820.88	-0.00126762
4822.81	0.00129875
4824.74	0.00381727
4826.67	0.00379573
4828.6	0.000714087
4830.53	-0.00218786
4832.45	-0.00167236
4834.38	0.00106148
4836.31	0.00188967
4838.24	-0.000789457
4840.17	-0.00437383
4842.1	-0.00576855
4844.03	-0.00457193
4845.96	-0.00195581
4847.89	0.00142281
4849.82	0.00484087
4851.75	0.00655164
4853.68	0.00543177
4855.6	0.00277661
4857.53	0.000751525
4859.46	-0.000394031
4861.39	-0.00195633
4863.32	-0.0040499
4865.25	-0.00522318
4867.18	-0.00489206
4869.11	-0.00427646
4871.04	-0.00422456
4872.97	-0.00364662
4874.9	-0.00132734
4876.82	0.00178834
4878.75	0.0034645
4880.68	0.00281373
4882.61	0.000874715
4884.54	-0.00109187
4886.47	-0.00254137
4888.4	-0.00298625
4890.33	-0.00192464
4892.26	4.06381e-005
4894.19	0.00117066
4896.12	0.000509211
4898.04	-0.000940499
4899.97	-0.00174393
4901.9	-0.00191045
4903.83	-0.00217575
4905.76	-0.00221659
4907.69	-0.0011117
4909.62	0.000649319
4911.55	0.00143034
4913.48	0.00113861
4915.41	0.00175306
4917.34	0.00412799
4919.27	0.00568174
4921.19	0.00323864
4923.12	-0.00238687
4925.05	-0.00665477
4926.98	-0.00618767
4928.91	-0.00220892
4930.84	0.00131993
4932.77	0.00199041
4934.7	0.000502919
4936.63	-0.00123036
4938.56	-0.00221089
4940.49	-0.00243284
4942.41	-0.00173818
4944.34	0.000488443
4946.27	0.00411564
4948.2	0.00717646
4950.13	0.00690115
4952.06	0.00260611
4953.99	-0.00273916
4955.92	-0.00510858
4957.85	-0.00367206
4959.78	-0.00150436
4961.71	-0.001946
4963.64	-0.00490285
4965.56	-0.0073933
4967.49	-0.00711073
4969.42	-0.00438017
4971.35	-0.00111438
4973.28	0.000988732
4975.21	0.00106002
4977.14	-0.000988338
4979.07	-0.00404849
4981	-0.00575858
4982.93	-0.00416315
4984.86	0.000106225
4986.78	0.00386363
4988.71	0.004212
4990.64	0.00145851
4992.57	-0.00139808
4994.5	-0.00209727
4996.43	-0.00115055
4998.36	-0.000332241
