##TITLE=3 atr ethanol attempt 2.ascii
##$NOTE=11.03.2023 11:36:3 ^0 x10 v:1
##$ITAB=-1,-1
##FIRSTX=499.643
##DELTAX=1.92912
##NPOINTS=2333
##XUNITS=1/CM
##YUNITS=ABSORBANCE
499.643	0.176017
501.572	0.181299
503.501	0.17508
505.43	0.159877
507.36	0.140006
509.289	0.131577
511.218	0.131907
513.147	0.0853983
515.076	0.0787564
517.005	0.0873579
518.934	0.105316
520.863	0.118223
522.792	0.122991
524.722	0.126404
526.651	0.130463
528.58	0.130425
530.509	0.124606
532.438	0.119175
534.367	0.120527
536.296	0.127399
538.225	0.133308
540.155	0.134808
542.084	0.135013
544.013	0.138826
545.942	0.146411
547.871	0.15253
549.8	0.152104
551.729	0.145428
553.658	0.137193
555.588	0.131564
557.517	0.129449
559.446	0.129533
561.375	0.130681
563.304	0.132966
565.233	0.136708
567.162	0.141071
569.091	0.14399
571.021	0.143745
572.95	0.140455
574.879	0.136133
576.808	0.133511
578.737	0.134284
580.666	0.138277
582.595	0.144328
584.524	0.15149
586.454	0.159042
588.383	0.165579
590.312	0.168801
592.241	0.167089
594.17	0.161534
596.099	0.155582
598.028	0.152235
599.957	0.151918
601.887	0.153107
603.816	0.15446
605.745	0.155799
607.674	0.157078
609.603	0.157383
611.532	0.155877
613.461	0.153503
615.39	0.152487
617.32	0.153724
619.249	0.155663
621.178	0.156402
623.107	0.15606
625.036	0.156328
626.965	0.158246
628.894	0.161079
630.823	0.163226
632.753	0.163738
634.682	0.16301
636.611	0.162351
638.54	0.162727
640.469	0.163708
642.398	0.163968
644.327	0.163031
646.256	0.162012
648.186	0.162248
650.115	0.163596
652.044	0.164509
653.973	0.163794
655.902	0.161447
657.831	0.158167
659.76	0.155213
661.689	0.153996
663.619	0.155067
665.548	0.157521
667.477	0.158736
669.406	0.156996
671.335	0.155097
673.264	0.155544
675.193	0.157196
677.122	0.157452
679.052	0.155255
680.981	0.152433
682.91	0.150899
684.839	0.150194
686.768	0.148824
688.697	0.146467
690.626	0.143902
692.555	0.141526
694.485	0.139096
696.414	0.136552
698.343	0.134165
700.272	0.131974
702.201	0.129779
704.13	0.127652
706.059	0.125949
707.988	0.12472
709.917	0.123594
711.847	0.12239
713.776	0.121416
715.705	0.12094
717.634	0.120648
719.563	0.119893
721.492	0.11837
723.421	0.116327
725.35	0.114167
727.28	0.112138
729.209	0.110373
731.138	0.108956
733.067	0.107876
734.996	0.107037
736.925	0.106315
738.854	0.105509
740.783	0.104333
742.713	0.102661
744.642	0.10076
746.571	0.099049
748.5	0.0975712
750.429	0.0959626
752.358	0.0940808
754.287	0.0924307
756.216	0.0916517
758.146	0.0916529
760.075	0.0916041
762.004	0.0908768
763.933	0.0897059
765.862	0.0887106
767.791	0.0879701
769.72	0.0869326
771.649	0.0852434
773.579	0.0833189
775.508	0.0819226
777.437	0.0813594
779.366	0.08128
781.295	0.0811933
783.224	0.080959
785.153	0.0807538
787.082	0.08073
789.012	0.0808234
790.941	0.0808694
792.87	0.080877
794.799	0.0811727
796.728	0.0821784
798.657	0.0838839
800.586	0.0855166
802.515	0.0859103
804.445	0.0843658
806.374	0.081149
808.303	0.0771567
810.232	0.0732075
812.161	0.0697149
814.09	0.0668483
816.019	0.0646552
817.948	0.0629222
819.878	0.0612031
821.807	0.0592648
823.736	0.0574233
825.665	0.0561854
827.594	0.0555574
829.523	0.0549612
831.452	0.0539317
833.381	0.0526907
835.311	0.0518708
837.24	0.0517844
839.169	0.0521145
841.098	0.0522612
843.027	0.0518734
844.956	0.0511
846.885	0.0504541
848.814	0.0503993
850.744	0.0509408
852.673	0.0516461
854.602	0.0521916
856.531	0.0528308
858.46	0.0541717
860.389	0.0566261
862.318	0.0603741
864.247	0.0658598
866.177	0.0740222
868.106	0.0859865
870.035	0.102806
871.964	0.125349
873.893	0.153331
875.822	0.183097
877.751	0.20635
879.68	0.213605
881.609	0.201624
883.539	0.176272
885.468	0.146852
887.397	0.119762
889.326	0.0973162
891.255	0.0796818
893.184	0.0664875
895.113	0.057094
897.042	0.0504655
898.972	0.0454964
900.901	0.0415427
902.83	0.0384817
904.759	0.0362733
906.688	0.0346312
908.617	0.0331776
910.546	0.0317689
912.475	0.0305041
914.405	0.0294466
916.334	0.02851
918.263	0.0276548
920.192	0.0270174
922.121	0.0266989
924.05	0.0265251
925.979	0.0261892
927.908	0.025606
929.838	0.0249835
931.767	0.0245636
933.696	0.0244357
935.625	0.0245757
937.554	0.024885
939.483	0.0251666
941.412	0.025245
943.341	0.0251818
945.271	0.0252236
947.2	0.0254702
949.129	0.0257519
951.058	0.0259125
952.987	0.0260381
954.916	0.0262766
956.845	0.0265935
958.774	0.0268688
960.704	0.0270995
962.633	0.0273262
964.562	0.0274868
966.491	0.0275721
968.42	0.0278387
970.349	0.0285891
972.278	0.0297356
974.207	0.0308235
976.137	0.0315415
978.066	0.0320131
979.995	0.0325353
981.924	0.0332553
983.853	0.0342085
985.782	0.0354517
987.711	0.0369481
989.64	0.0384455
991.57	0.0397057
993.499	0.0408536
995.428	0.0423229
997.357	0.044406
999.286	0.0469688
1001.22	0.0496579
1003.14	0.0523037
1005.07	0.0550553
1007	0.0581789
1008.93	0.0618394
1010.86	0.06611
1012.79	0.0711089
1014.72	0.0770268
1016.65	0.0840268
1018.58	0.092216
1020.51	0.101779
1022.44	0.11309
1024.36	0.126648
1026.29	0.14298
1028.22	0.162705
1030.15	0.186673
1032.08	0.215928
1034.01	0.251443
1035.94	0.293662
1037.87	0.341655
1039.8	0.391706
1041.73	0.436171
1043.66	0.464683
1045.58	0.468908
1047.51	0.447498
1049.44	0.406053
1051.37	0.353152
1053.3	0.297164
1055.23	0.244951
1057.16	0.201143
1059.09	0.167687
1061.02	0.144213
1062.95	0.129192
1064.88	0.121087
1066.81	0.118764
1068.73	0.12125
1070.66	0.127474
1072.59	0.136395
1074.52	0.147326
1076.45	0.159997
1078.38	0.174185
1080.31	0.18919
1082.24	0.203537
1084.17	0.215114
1086.1	0.221616
1088.03	0.221155
1089.95	0.212944
1091.88	0.197749
1093.81	0.177645
1095.74	0.155215
1097.67	0.132828
1099.6	0.112295
1101.53	0.0947164
1103.46	0.0804503
1105.39	0.0692969
1107.32	0.060843
1109.25	0.0546584
1111.18	0.0502351
1113.1	0.0469308
1115.03	0.0441726
1116.96	0.04176
1118.89	0.0398611
1120.82	0.0386363
1122.75	0.0379152
1124.68	0.0372979
1126.61	0.0365162
1128.54	0.0356047
1130.47	0.0347316
1132.4	0.0339673
1134.32	0.0332542
1136.25	0.0325151
1138.18	0.0317064
1140.11	0.0308058
1142.04	0.0298454
1143.97	0.0289776
1145.9	0.0284224
1147.83	0.02827
1149.76	0.0283405
1151.69	0.0282976
1153.62	0.0279302
1155.55	0.0273047
1157.47	0.0266224
1159.4	0.0259536
1161.33	0.0251745
1163.26	0.0241886
1165.19	0.0231452
1167.12	0.0223456
1169.05	0.021922
1170.98	0.0216974
1172.91	0.0214178
1174.84	0.0210532
1176.77	0.0207711
1178.69	0.0206514
1180.62	0.0205704
1182.55	0.0204079
1184.48	0.0202416
1186.41	0.0202346
1188.34	0.0203965
1190.27	0.0205757
1192.2	0.0206615
1194.13	0.0206765
1196.06	0.0206592
1197.99	0.0205754
1199.91	0.0204053
1201.84	0.0202333
1203.77	0.0201729
1205.7	0.020249
1207.63	0.0204148
1209.56	0.0206335
1211.49	0.0208631
1213.42	0.0210121
1215.35	0.0210232
1217.28	0.0210018
1219.21	0.0211512
1221.14	0.0215326
1223.06	0.0219595
1224.99	0.0221857
1226.92	0.0221635
1228.85	0.0220794
1230.78	0.0221683
1232.71	0.0225243
1234.64	0.0230603
1236.57	0.0236077
1238.5	0.0240683
1240.43	0.0245045
1242.36	0.0250711
1244.28	0.0258424
1246.21	0.0267393
1248.14	0.0276594
1250.07	0.0286411
1252	0.0298303
1253.93	0.0312813
1255.86	0.0328492
1257.79	0.0343412
1259.72	0.0357832
1261.65	0.0374867
1263.58	0.039778
1265.51	0.0426361
1267.43	0.0456311
1269.36	0.0482172
1271.29	0.0500506
1273.22	0.0510163
1275.15	0.051051
1277.08	0.0501269
1279.01	0.0484641
1280.94	0.0465983
1282.87	0.0450858
1284.8	0.0441708
1286.73	0.0438045
1288.65	0.0438772
1290.58	0.0443068
1292.51	0.044987
1294.44	0.0458336
1296.37	0.0468898
1298.3	0.0482417
1300.23	0.0498061
1302.16	0.0513517
1304.09	0.0527948
1306.02	0.054331
1307.95	0.0561335
1309.87	0.0580007
1311.8	0.0594752
1313.73	0.0603262
1315.66	0.0607954
1317.59	0.061318
1319.52	0.0620909
1321.45	0.0629777
1323.38	0.0637487
1325.31	0.0642809
1327.24	0.0645325
1329.17	0.0644746
1331.1	0.0641322
1333.02	0.0636166
1334.95	0.0630155
1336.88	0.0622639
1338.81	0.06121
1340.74	0.0598666
1342.67	0.0585043
1344.6	0.0574122
1346.53	0.05665
1348.46	0.0560552
1350.39	0.0554553
1352.32	0.0548629
1354.24	0.0544296
1356.17	0.0542346
1358.1	0.0542274
1360.03	0.0544485
1361.96	0.0552748
1363.89	0.0573088
1365.82	0.0609241
1367.75	0.0660379
1369.68	0.0722041
1371.61	0.0786305
1373.54	0.0842903
1375.47	0.0883807
1377.39	0.0906363
1379.32	0.0911371
1381.25	0.0900194
1383.18	0.0873885
1385.11	0.0834884
1387.04	0.0790524
1388.97	0.0751398
1390.9	0.0723049
1392.83	0.0703348
1394.76	0.0688218
1396.69	0.0676946
1398.61	0.0671445
1400.54	0.0671852
1402.47	0.0676067
1404.4	0.0682527
1406.33	0.0690949
1408.26	0.0700722
1410.19	0.0710255
1412.12	0.0718594
1414.05	0.0726142
1415.98	0.0732495
1417.91	0.0734557
1419.83	0.0729846
1421.76	0.0721717
1423.69	0.0715592
1425.62	0.0712491
1427.55	0.0709682
1429.48	0.0704831
1431.41	0.0698045
1433.34	0.0689756
1435.27	0.0679048
1437.2	0.066669
1439.13	0.0657999
1441.06	0.0657927
1442.98	0.0666088
1444.91	0.06778
1446.84	0.0686667
1448.77	0.0690099
1450.7	0.0691921
1452.63	0.0694157
1454.56	0.0689598
1456.49	0.0666579
1458.42	0.0628531
1460.35	0.0590891
1462.28	0.0556379
1464.2	0.0520932
1466.13	0.0488044
1468.06	0.046453
1469.99	0.0448422
1471.92	0.0431676
1473.85	0.0413465
1475.78	0.0401942
1477.71	0.0398654
1479.64	0.0396187
1481.57	0.038984
1483.5	0.0381576
1485.43	0.0373067
1487.35	0.0359675
1489.28	0.0337311
1491.21	0.0312634
1493.14	0.0293685
1495.07	0.0277733
1497	0.0258008
1498.93	0.0237603
1500.86	0.0226485
1502.79	0.0226259
1504.72	0.0228846
1506.65	0.0222035
1508.57	0.0203924
1510.5	0.0187136
1512.43	0.0177851
1514.36	0.017435
1516.29	0.0174034
1518.22	0.0174263
1520.15	0.0172357
1522.08	0.0167541
1524.01	0.0161865
1525.94	0.0157543
1527.87	0.0154469
1529.8	0.0151486
1531.72	0.0148585
1533.65	0.0147218
1535.58	0.0148503
1537.51	0.015142
1539.44	0.0152502
1541.37	0.0148679
1543.3	0.014232
1545.23	0.0137174
1547.16	0.0133568
1549.09	0.0131312
1551.02	0.0132219
1552.94	0.0138425
1554.87	0.0148096
1556.8	0.0151783
1558.73	0.0138021
1560.66	0.0116476
1562.59	0.0105786
1564.52	0.01062
1566.45	0.0109306
1568.38	0.010879
1570.31	0.0105658
1572.24	0.0104687
1574.16	0.0105649
1576.09	0.0103727
1578.02	0.00978048
1579.95	0.00929711
1581.88	0.00923828
1583.81	0.0093871
1585.74	0.00940658
1587.67	0.00926283
1589.6	0.00919206
1591.53	0.00933879
1593.46	0.00960884
1595.39	0.00981461
1597.31	0.00983245
1599.24	0.00964947
1601.17	0.00936333
1603.1	0.00913445
1605.03	0.00908101
1606.96	0.00924037
1608.89	0.00964519
1610.82	0.0103346
1612.75	0.0112012
1614.68	0.0118857
1616.61	0.0120483
1618.53	0.011906
1620.46	0.0120357
1622.39	0.0125821
1624.32	0.0131572
1626.25	0.0134503
1628.18	0.0137425
1630.11	0.0144774
1632.04	0.0156171
1633.97	0.0166074
1635.9	0.0168752
1637.83	0.0167451
1639.76	0.0169213
1641.68	0.017399
1643.61	0.0177581
1645.54	0.0178143
1647.47	0.0179022
1649.4	0.0182673
1651.33	0.0185327
1653.26	0.0182409
1655.19	0.01775
1657.12	0.017585
1659.05	0.0175964
1660.98	0.0174796
1662.9	0.0172882
1664.83	0.0172964
1666.76	0.0174337
1668.69	0.0172826
1670.62	0.0166405
1672.55	0.0157615
1674.48	0.014964
1676.41	0.0143113
1678.34	0.0138153
1680.27	0.0135038
1682.2	0.0131737
1684.12	0.0124302
1686.05	0.0113935
1687.98	0.0107081
1689.91	0.0105592
1691.84	0.0106463
1693.77	0.0106403
1695.7	0.0104043
1697.63	0.00999195
1699.56	0.00949812
1701.49	0.00897339
1703.42	0.00843145
1705.35	0.00788423
1707.27	0.00745057
1709.2	0.00735073
1711.13	0.00764291
1713.06	0.00803676
1714.99	0.00803046
1716.92	0.00742578
1718.85	0.00673339
1720.78	0.00636427
1722.71	0.00611946
1724.64	0.00581098
1726.57	0.00561642
1728.49	0.00575184
1730.42	0.00601471
1732.35	0.00587789
1734.28	0.00523023
1736.21	0.00472389
1738.14	0.0048265
1740.07	0.00528473
1742	0.00561009
1743.93	0.00562284
1745.86	0.00549714
1747.79	0.00536198
1749.72	0.00510298
1751.64	0.00465939
1753.57	0.00428074
1755.5	0.00423082
1757.43	0.00446507
1759.36	0.00469164
1761.29	0.00471184
1763.22	0.00467549
1765.15	0.00483114
1767.08	0.0051484
1769.01	0.00530847
1770.94	0.00502212
1772.86	0.00444022
1774.79	0.0040454
1776.72	0.0040419
1778.65	0.00421756
1780.58	0.00425341
1782.51	0.0040519
1784.44	0.00385202
1786.37	0.00389544
1788.3	0.0040709
1790.23	0.00401474
1792.16	0.00358522
1794.08	0.00317123
1796.01	0.00317662
1797.94	0.00345848
1799.87	0.00354038
1801.8	0.00318734
1803.73	0.00268453
1805.66	0.00243949
1807.59	0.00253302
1809.52	0.00276047
1811.45	0.00289826
1813.38	0.00287626
1815.31	0.00273611
1817.23	0.00252624
1819.16	0.00229931
1821.09	0.00214831
1823.02	0.00217753
1824.95	0.00241853
1826.88	0.00275843
1828.81	0.00297466
1830.74	0.00291769
1832.67	0.00264631
1834.6	0.00235203
1836.53	0.00220221
1838.45	0.00225286
1840.38	0.0024404
1842.31	0.00260537
1844.24	0.00258243
1846.17	0.00238026
1848.1	0.00219719
1850.03	0.00217671
1851.96	0.00225995
1853.89	0.00228853
1855.82	0.00220121
1857.75	0.00209731
1859.68	0.00210104
1861.6	0.00222911
1863.53	0.00241529
1865.46	0.00258874
1867.39	0.00268829
1869.32	0.00267714
1871.25	0.00260191
1873.18	0.00255731
1875.11	0.00255197
1877.04	0.00247197
1878.97	0.00222255
1880.9	0.00191038
1882.82	0.00179368
1884.75	0.00200784
1886.68	0.0023951
1888.61	0.00264845
1890.54	0.00264587
1892.47	0.0025628
1894.4	0.00260366
1896.33	0.00275179
1898.26	0.00287487
1900.19	0.00297432
1902.12	0.00317055
1904.05	0.00345093
1905.97	0.00361651
1907.9	0.00357159
1909.83	0.00353632
1911.76	0.00379798
1913.69	0.00434247
1915.62	0.00490933
1917.55	0.00533855
1919.48	0.00571095
1921.41	0.00612207
1923.34	0.00648734
1925.27	0.00666356
1927.19	0.00660566
1929.12	0.00631097
1931.05	0.00574636
1932.98	0.00496342
1934.91	0.00419071
1936.84	0.00364794
1938.77	0.00331667
1940.7	0.00301887
1942.63	0.00267771
1944.56	0.0023856
1946.49	0.00222868
1948.41	0.00219525
1950.34	0.00225821
1952.27	0.00239493
1954.2	0.0025146
1956.13	0.00250439
1958.06	0.00238433
1959.99	0.00228771
1961.92	0.00223748
1963.85	0.00207769
1965.78	0.00173058
1967.71	0.00141798
1969.64	0.00145075
1971.56	0.00182153
1973.49	0.0021726
1975.42	0.00217947
1977.35	0.00187427
1979.28	0.00156157
1981.21	0.00147493
1983.14	0.00158317
1985.07	0.00170638
1987	0.00174268
1988.93	0.0017434
1990.86	0.00179869
1992.78	0.00191151
1994.71	0.00201785
1996.64	0.00208668
1998.57	0.00212671
2000.5	0.00211143
2002.43	0.00197946
2004.36	0.00173288
2006.29	0.00147619
2008.22	0.00132746
2010.15	0.00133108
2012.08	0.00146669
2014.01	0.00167283
2015.93	0.00182933
2017.86	0.00181099
2019.79	0.00164122
2021.72	0.00151514
2023.65	0.00157428
2025.58	0.00171637
2027.51	0.00173138
2029.44	0.00159831
2031.37	0.00152196
2033.3	0.00165639
2035.23	0.00190381
2037.15	0.00204227
2039.08	0.00198371
2041.01	0.00184607
2042.94	0.00179693
2044.87	0.00186589
2046.8	0.00191595
2048.73	0.00180071
2050.66	0.00154969
2052.59	0.00136227
2054.52	0.0013858
2056.45	0.00154767
2058.37	0.00166765
2060.3	0.00168026
2062.23	0.00164553
2064.16	0.00157988
2066.09	0.00142708
2068.02	0.00122688
2069.95	0.00116428
2071.88	0.00136059
2073.81	0.00170469
2075.74	0.00198087
2077.67	0.00210643
2079.6	0.00215044
2081.52	0.00216412
2083.45	0.00211005
2085.38	0.00196352
2087.31	0.00178828
2089.24	0.00167109
2091.17	0.00162986
2093.1	0.00162435
2095.03	0.00163304
2096.96	0.00167989
2098.89	0.00177934
2100.82	0.0018805
2102.74	0.00190254
2104.67	0.00184175
2106.6	0.00181304
2108.53	0.00194183
2110.46	0.00222539
2112.39	0.0025499
2114.32	0.00283464
2116.25	0.00308184
2118.18	0.00326521
2120.11	0.00327209
2122.04	0.00305196
2123.97	0.00277654
2125.89	0.00273263
2127.82	0.00302497
2129.75	0.00345916
2131.68	0.00375799
2133.61	0.00383388
2135.54	0.00379769
2137.47	0.00375049
2139.4	0.00366135
2141.33	0.00346455
2143.26	0.0031954
2145.19	0.00296717
2147.11	0.00284527
2149.04	0.00280165
2150.97	0.00278225
2152.9	0.00276569
2154.83	0.00275623
2156.76	0.00276867
2158.69	0.0028197
2160.62	0.00288244
2162.55	0.00286181
2164.48	0.0026987
2166.41	0.00250303
2168.33	0.00246855
2170.26	0.00260768
2172.19	0.00269343
2174.12	0.00256181
2176.05	0.00235705
2177.98	0.00232735
2179.91	0.00245978
2181.84	0.00250751
2183.77	0.00235307
2185.7	0.00213977
2187.63	0.00200967
2189.56	0.00191197
2191.48	0.00176485
2193.41	0.00163767
2195.34	0.00163947
2197.27	0.00174857
2199.2	0.00189066
2201.13	0.00208188
2203.06	0.00233601
2204.99	0.00250978
2206.92	0.0024312
2208.85	0.0021634
2210.78	0.00196765
2212.7	0.0019901
2214.63	0.00214278
2216.56	0.00231755
2218.49	0.00253002
2220.42	0.00275814
2222.35	0.00280431
2224.28	0.00249585
2226.21	0.00196317
2228.14	0.00155345
2230.07	0.00145819
2232	0.00154557
2233.93	0.00158943
2235.85	0.0015533
2237.78	0.00157324
2239.71	0.00173275
2241.64	0.0019712
2243.57	0.00222303
2245.5	0.00254506
2247.43	0.00301881
2249.36	0.0035525
2251.29	0.00388742
2253.22	0.00386733
2255.15	0.00365962
2257.07	0.00362634
2259	0.00396137
2260.93	0.0045021
2262.86	0.0049112
2264.79	0.00499489
2266.72	0.00481626
2268.65	0.00454923
2270.58	0.00429373
2272.51	0.00404226
2274.44	0.00377885
2276.37	0.00356159
2278.29	0.00348754
2280.22	0.00359265
2282.15	0.00383255
2284.08	0.00418123
2286.01	0.00469863
2287.94	0.00544885
2289.87	0.00639427
2291.8	0.00746594
2293.73	0.00871775
2295.66	0.0102623
2297.59	0.0120182
2299.52	0.0137037
2301.44	0.0152264
2303.37	0.0169359
2305.3	0.0192563
2307.23	0.0220864
2309.16	0.0248085
2311.09	0.0270369
2313.02	0.029205
2314.95	0.0321369
2316.88	0.0361173
2318.81	0.0406087
2320.74	0.0447924
2322.66	0.048299
2324.59	0.05134
2326.52	0.0541994
2328.45	0.0569672
2330.38	0.0597265
2332.31	0.0625257
2334.24	0.0651364
2336.17	0.0672856
2338.1	0.0689405
2340.03	0.0695791
2341.96	0.0675737
2343.89	0.062518
2345.81	0.0575301
2347.74	0.0560167
2349.67	0.0590461
2351.6	0.0660658
2353.53	0.0751251
2355.46	0.0828397
2357.39	0.0871615
2359.32	0.0891016
2361.25	0.0891259
2363.18	0.0862364
2365.11	0.0807048
2367.03	0.0738571
2368.96	0.0659883
2370.89	0.0568984
2372.82	0.0472958
2374.75	0.0383816
2376.68	0.0307508
2378.61	0.0242529
2380.54	0.0185559
2382.47	0.0135774
2384.4	0.00950192
2386.33	0.00656651
2388.26	0.00483615
2390.18	0.00410077
2392.11	0.00394417
2394.04	0.00393456
2395.97	0.00382259
2397.9	0.00362223
2399.83	0.00349766
2401.76	0.00353074
2403.69	0.00360527
2405.62	0.00355805
2407.55	0.00340303
2409.48	0.00331191
2411.4	0.00337774
2413.33	0.00350441
2415.26	0.00355274
2417.19	0.00348507
2419.12	0.0033306
2421.05	0.00314205
2422.98	0.00305469
2424.91	0.00323193
2426.84	0.00361993
2428.77	0.00389667
2430.7	0.00384402
2432.62	0.00365716
2434.55	0.00366039
2436.48	0.00378374
2438.41	0.0036092
2440.34	0.00297541
2442.27	0.00226781
2444.2	0.00198964
2446.13	0.00224236
2448.06	0.00275244
2449.99	0.0032178
2451.92	0.00345782
2453.85	0.00338628
2455.77	0.00307903
2457.7	0.00282445
2459.63	0.00290705
2461.56	0.00331599
2463.49	0.00377414
2465.42	0.00404049
2467.35	0.00408781
2469.28	0.00402707
2471.21	0.00398166
2473.14	0.0040125
2475.07	0.00405533
2476.99	0.00396618
2478.92	0.00375266
2480.85	0.00371187
2482.78	0.00415356
2484.71	0.00496516
2486.64	0.00563182
2488.57	0.00576442
2490.5	0.00546979
2492.43	0.00512932
2494.36	0.00496807
2496.29	0.00496765
2498.22	0.00507317
2500.14	0.00528659
2502.07	0.00557813
2504	0.005872
2505.93	0.00614938
2507.86	0.00645162
2509.79	0.00675859
2511.72	0.0069767
2513.65	0.00708546
2515.58	0.00718118
2517.51	0.00729797
2519.44	0.00727464
2521.36	0.00691408
2523.29	0.00625682
2525.22	0.00561335
2527.15	0.00531457
2529.08	0.00545585
2531.01	0.00584504
2532.94	0.00615394
2534.87	0.00617724
2536.8	0.00602742
2538.73	0.00604175
2540.66	0.00640151
2542.58	0.00686659
2544.51	0.00700557
2546.44	0.0066884
2548.37	0.00621511
2550.3	0.00593176
2552.23	0.00588694
2554.16	0.00595616
2556.09	0.00612305
2558.02	0.00642573
2559.95	0.00669945
2561.88	0.00662272
2563.81	0.00608686
2565.73	0.00536746
2567.66	0.00484926
2569.59	0.00469108
2571.52	0.00483447
2573.45	0.00520287
2575.38	0.00571648
2577.31	0.00615246
2579.24	0.00619952
2581.17	0.00576451
2583.1	0.00514257
2585.03	0.00475857
2586.95	0.00473588
2588.88	0.00480461
2590.81	0.00465764
2592.74	0.0043138
2594.67	0.00405535
2596.6	0.00405915
2598.53	0.00421566
2600.46	0.00433883
2602.39	0.00443891
2604.32	0.00468497
2606.25	0.00513863
2608.18	0.00563806
2610.1	0.00597618
2612.03	0.00612654
2613.96	0.00624692
2615.89	0.00648799
2617.82	0.00683219
2619.75	0.00710643
2621.68	0.0071309
2623.61	0.00687304
2625.54	0.00648826
2627.47	0.00620939
2629.4	0.00616855
2631.32	0.00630693
2633.25	0.00645483
2635.18	0.00650011
2637.11	0.0064777
2639.04	0.00649888
2640.97	0.00660795
2642.9	0.00672966
2644.83	0.00676675
2646.76	0.00672807
2648.69	0.00672182
2650.62	0.00680935
2652.54	0.00690538
2654.47	0.00687807
2656.4	0.00674637
2658.33	0.00671024
2660.26	0.00693514
2662.19	0.00734059
2664.12	0.00767051
2666.05	0.00777141
2667.98	0.00772543
2669.91	0.0076863
2671.84	0.0076775
2673.77	0.00763861
2675.69	0.00761233
2677.62	0.00775235
2679.55	0.00813116
2681.48	0.00865189
2683.41	0.00919179
2685.34	0.00973312
2687.27	0.0102886
2689.2	0.0107963
2691.13	0.0111993
2693.06	0.0115626
2694.99	0.0119796
2696.91	0.0123834
2698.84	0.0125977
2700.77	0.0125973
2702.7	0.0125786
2704.63	0.0127095
2706.56	0.0129256
2708.49	0.0130738
2710.42	0.0131743
2712.35	0.013395
2714.28	0.0137736
2716.21	0.0140979
2718.14	0.0141438
2720.06	0.0139995
2721.99	0.0140723
2723.92	0.0147096
2725.85	0.0157891
2727.78	0.0167391
2729.71	0.0170594
2731.64	0.0168204
2733.57	0.016551
2735.5	0.016621
2737.43	0.0168763
2739.36	0.0169734
2741.28	0.0169027
2743.21	0.0169595
2745.14	0.0172686
2747.07	0.0176063
2749	0.0177507
2750.93	0.0177684
2752.86	0.0178067
2754.79	0.0177831
2756.72	0.0174987
2758.65	0.0169961
2760.58	0.0165964
2762.51	0.0165456
2764.43	0.0167489
2766.36	0.0169177
2768.29	0.0169152
2770.22	0.0169054
2772.15	0.01715
2774.08	0.0176574
2776.01	0.0180833
2777.94	0.0180809
2779.87	0.01775
2781.8	0.0175841
2783.73	0.0179277
2785.65	0.0186625
2787.58	0.0195285
2789.51	0.0205201
2791.44	0.02171
2793.37	0.0228417
2795.3	0.0234691
2797.23	0.0235391
2799.16	0.0235492
2801.09	0.0240317
2803.02	0.02509
2804.95	0.0264905
2806.87	0.0279562
2808.8	0.0292504
2810.73	0.0302034
2812.66	0.0308454
2814.59	0.0313976
2816.52	0.0320145
2818.45	0.0326606
2820.38	0.0333157
2822.31	0.0341098
2824.24	0.0351172
2826.17	0.0361931
2828.1	0.0371927
2830.02	0.0382014
2831.95	0.0393569
2833.88	0.0405785
2835.81	0.041674
2837.74	0.0426089
2839.67	0.0434709
2841.6	0.0442877
2843.53	0.0451253
2845.46	0.0462691
2847.39	0.047953
2849.32	0.0498772
2851.24	0.0514305
2853.17	0.0525384
2855.1	0.0539051
2857.03	0.0562672
2858.96	0.0595946
2860.89	0.0631583
2862.82	0.0663027
2864.75	0.0690142
2866.68	0.0717604
2868.61	0.0748914
2870.54	0.0782291
2872.47	0.0811684
2874.39	0.0831202
2876.32	0.0838848
2878.25	0.0837202
2880.18	0.0831478
2882.11	0.0826519
2884.04	0.0824131
2885.97	0.0822619
2887.9	0.081939
2889.83	0.0813949
2891.76	0.0807361
2893.69	0.079918
2895.61	0.0787213
2897.54	0.0771266
2899.47	0.0755028
2901.4	0.074235
2903.33	0.0732698
2905.26	0.0721845
2907.19	0.0706087
2909.12	0.0684769
2911.05	0.0660846
2912.98	0.0641522
2914.91	0.0636351
2916.83	0.0649449
2918.76	0.0672771
2920.69	0.069219
2922.62	0.0700616
2924.55	0.0701156
2926.48	0.0699108
2928.41	0.0695362
2930.34	0.0687665
2932.27	0.0674719
2934.2	0.0657568
2936.13	0.0638983
2938.06	0.0622203
2939.98	0.060859
2941.91	0.0596466
2943.84	0.0584511
2945.77	0.0576087
2947.7	0.0576553
2949.63	0.0585572
2951.56	0.0596953
2953.49	0.0609412
2955.42	0.0633469
2957.35	0.0682286
2959.28	0.0757586
2961.2	0.0849849
2963.13	0.0950813
2965.06	0.105905
2966.99	0.117149
2968.92	0.127454
2970.85	0.134681
2972.78	0.136851
2974.71	0.13291
2976.64	0.123261
2978.57	0.109927
2980.5	0.0956762
2982.43	0.0824384
2984.35	0.0706077
2986.28	0.05995
2988.21	0.0507579
2990.14	0.0436713
2992.07	0.0386674
2994	0.0349309
2995.93	0.0317784
2997.86	0.0291452
2999.79	0.0270413
3001.72	0.0251283
3003.65	0.0231724
3005.57	0.0214698
3007.5	0.0203862
3009.43	0.0197532
3011.36	0.0191381
3013.29	0.0185058
3015.22	0.0182083
3017.15	0.0184287
3019.08	0.0190018
3021.01	0.0197212
3022.94	0.0204608
3024.87	0.0210151
3026.79	0.0211729
3028.72	0.0210032
3030.65	0.020814
3032.58	0.0208103
3034.51	0.0210281
3036.44	0.0215357
3038.37	0.0223333
3040.3	0.0230295
3042.23	0.0230492
3044.16	0.0223749
3046.09	0.0217613
3048.02	0.0219138
3049.94	0.0226276
3051.87	0.0230552
3053.8	0.0227518
3055.73	0.0221868
3057.66	0.0221962
3059.59	0.0231144
3061.52	0.0245439
3063.45	0.0258125
3065.38	0.0264519
3067.31	0.0263046
3069.24	0.0254701
3071.16	0.0243972
3073.09	0.0239116
3075.02	0.0247125
3076.95	0.0266091
3078.88	0.0285337
3080.81	0.0295863
3082.74	0.0298742
3084.67	0.0301039
3086.6	0.0306387
3088.53	0.0313519
3090.46	0.0321451
3092.39	0.0330264
3094.31	0.0337425
3096.24	0.03396
3098.17	0.0339251
3100.1	0.0343479
3102.03	0.0354102
3103.96	0.0364614
3105.89	0.0370128
3107.82	0.0374727
3109.75	0.0384268
3111.68	0.0396651
3113.61	0.0405132
3115.53	0.0408031
3117.46	0.0408706
3119.39	0.0408625
3121.32	0.0408472
3123.25	0.0414896
3125.18	0.0435887
3127.11	0.0466243
3129.04	0.0486925
3130.97	0.0486216
3132.9	0.0476285
3134.83	0.0480166
3136.75	0.050422
3138.68	0.0531882
3140.61	0.0545333
3142.54	0.0545436
3144.47	0.0546344
3146.4	0.0557142
3148.33	0.0575213
3150.26	0.0594245
3152.19	0.0611621
3154.12	0.062705
3156.05	0.0639268
3157.98	0.0647362
3159.9	0.0653352
3161.83	0.0660727
3163.76	0.067054
3165.69	0.0680154
3167.62	0.0686285
3169.55	0.0689408
3171.48	0.0694828
3173.41	0.0708045
3175.34	0.0728249
3177.27	0.0748116
3179.2	0.0761752
3181.12	0.0771062
3183.05	0.0781881
3184.98	0.0795732
3186.91	0.0809106
3188.84	0.0819789
3190.77	0.0828708
3192.7	0.0834889
3194.63	0.0834596
3196.56	0.082919
3198.49	0.0829172
3200.42	0.0844379
3202.35	0.0871614
3204.27	0.0897333
3206.2	0.0912889
3208.13	0.092247
3210.06	0.0934411
3211.99	0.0949458
3213.92	0.0961847
3215.85	0.0969692
3217.78	0.097865
3219.71	0.0993982
3221.64	0.101316
3223.57	0.102954
3225.49	0.104105
3227.42	0.105102
3229.35	0.106087
3231.28	0.106725
3233.21	0.106844
3235.14	0.106935
3237.07	0.107606
3239	0.108772
3240.93	0.109795
3242.86	0.110321
3244.79	0.11061
3246.72	0.111081
3248.64	0.111922
3250.57	0.113153
3252.5	0.114663
3254.43	0.116146
3256.36	0.117365
3258.29	0.118539
3260.22	0.120029
3262.15	0.121604
3264.08	0.122512
3266.01	0.122531
3267.94	0.122486
3269.86	0.123342
3271.79	0.125118
3273.72	0.127033
3275.65	0.128459
3277.58	0.129402
3279.51	0.130163
3281.44	0.130873
3283.37	0.131326
3285.3	0.131117
3287.23	0.1301
3289.16	0.128869
3291.08	0.128498
3293.01	0.129493
3294.94	0.131121
3296.87	0.132119
3298.8	0.132062
3300.73	0.131752
3302.66	0.132199
3304.59	0.133471
3306.52	0.134686
3308.45	0.134928
3310.38	0.134079
3312.31	0.132769
3314.23	0.131664
3316.16	0.130943
3318.09	0.130475
3320.02	0.130223
3321.95	0.130257
3323.88	0.130513
3325.81	0.130869
3327.74	0.131425
3329.67	0.132282
3331.6	0.132968
3333.53	0.132615
3335.45	0.13111
3337.38	0.129684
3339.31	0.129705
3341.24	0.131
3343.17	0.131949
3345.1	0.131397
3347.03	0.130017
3348.96	0.129299
3350.89	0.12956
3352.82	0.129727
3354.75	0.128997
3356.68	0.127815
3358.6	0.126918
3360.53	0.126128
3362.46	0.124744
3364.39	0.122775
3366.32	0.121026
3368.25	0.119988
3370.18	0.119259
3372.11	0.118252
3374.04	0.117012
3375.97	0.11601
3377.9	0.115505
3379.82	0.115451
3381.75	0.115709
3383.68	0.115901
3385.61	0.115256
3387.54	0.113235
3389.47	0.11043
3391.4	0.108341
3393.33	0.107939
3395.26	0.108659
3397.19	0.108922
3399.12	0.107562
3401.04	0.104672
3402.97	0.101273
3404.9	0.0984291
3406.83	0.0966594
3408.76	0.0958685
3410.69	0.0955791
3412.62	0.0952492
3414.55	0.0945488
3416.48	0.0934776
3418.41	0.0922391
3420.34	0.0909581
3422.27	0.0895539
3424.19	0.0879761
3426.12	0.0864775
3428.05	0.0854216
3429.98	0.0847531
3431.91	0.0838575
3433.84	0.0821405
3435.77	0.0797022
3437.7	0.0772778
3439.63	0.0754812
3441.56	0.0742494
3443.49	0.0730953
3445.41	0.0717283
3447.34	0.0702597
3449.27	0.0688862
3451.2	0.0676242
3453.13	0.0664335
3455.06	0.0653471
3456.99	0.0642513
3458.92	0.0627228
3460.85	0.0605012
3462.78	0.0581446
3464.71	0.0567152
3466.64	0.0565178
3468.56	0.0565443
3470.49	0.0555755
3472.42	0.0536121
3474.35	0.051754
3476.28	0.0506907
3478.21	0.0499383
3480.14	0.0487637
3482.07	0.0472935
3484	0.0462754
3485.93	0.0459711
3487.86	0.0458053
3489.78	0.0451137
3491.71	0.0438518
3493.64	0.0424671
3495.57	0.041236
3497.5	0.0398317
3499.43	0.0376426
3501.36	0.0346953
3503.29	0.0322201
3505.22	0.0317723
3507.15	0.0334059
3509.08	0.0350661
3511	0.0343461
3512.93	0.0309848
3514.86	0.0271949
3516.79	0.0253654
3518.72	0.0259222
3520.65	0.0275072
3522.58	0.0287175
3524.51	0.0291014
3526.44	0.02862
3528.37	0.0270535
3530.3	0.0243679
3532.23	0.0210851
3534.15	0.0178852
3536.08	0.0151962
3538.01	0.0133821
3539.94	0.0128487
3541.87	0.0133839
3543.8	0.0136174
3545.73	0.0120854
3547.66	0.00920134
3549.59	0.0070694
3551.52	0.00691069
3553.45	0.00770647
3555.37	0.00774933
3557.3	0.00681021
3559.23	0.00607365
3561.16	0.00638787
3563.09	0.00741943
3565.02	0.00817645
3566.95	0.00768246
3568.88	0.00555734
3570.81	0.00252326
3572.74	4.75415e-005
3574.67	-0.000765523
3576.6	-0.000231073
3578.52	4.53516e-005
3580.45	-0.000869784
3582.38	-0.00192795
3584.31	-0.00131624
3586.24	0.00135939
3588.17	0.00421729
3590.1	0.00524613
3592.03	0.00454794
3593.96	0.00353404
3595.89	0.00323974
3597.82	0.00352931
3599.74	0.00338381
3601.67	0.00194169
3603.6	-0.000848207
3605.53	-0.00436962
3607.46	-0.00762488
3609.39	-0.00940188
3611.32	-0.00883164
3613.25	-0.0060981
3615.18	-0.00234308
3617.11	0.000823962
3619.04	0.00207546
3620.97	0.00163783
3622.89	0.00106451
3624.82	0.0015096
3626.75	0.00281678
3628.68	0.00334675
3630.61	0.00147788
3632.54	-0.0021343
3634.47	-0.00578785
3636.4	-0.00857622
3638.33	-0.0105548
3640.26	-0.0123415
3642.19	-0.0143781
3644.11	-0.0164184
3646.04	-0.0174526
3647.97	-0.0161347
3649.9	-0.0128066
3651.83	-0.0103351
3653.76	-0.0111548
3655.69	-0.0153956
3657.62	-0.0204999
3659.55	-0.0226027
3661.48	-0.0205914
3663.41	-0.0170286
3665.33	-0.0146451
3667.26	-0.0136802
3669.19	-0.0121551
3671.12	-0.00883857
3673.05	-0.00520184
3674.98	-0.00343633
3676.91	-0.00396854
3678.84	-0.00550989
3680.77	-0.00678329
3682.7	-0.00730321
3684.63	-0.00701611
3686.56	-0.00605151
3688.48	-0.00472514
3690.41	-0.00366847
3692.34	-0.00398462
3694.27	-0.00670605
3696.2	-0.0115264
3698.13	-0.0159776
3700.06	-0.0168
3701.99	-0.0140101
3703.92	-0.0119148
3705.85	-0.0137634
3707.78	-0.0180302
3709.7	-0.0198578
3711.63	-0.016597
3713.56	-0.0117872
3715.49	-0.00945597
3717.42	-0.00934547
3719.35	-0.00895158
3721.28	-0.00698909
3723.21	-0.00539368
3725.14	-0.00717717
3727.07	-0.0121761
3729	-0.0169431
3730.93	-0.0181686
3732.85	-0.0153936
3734.78	-0.0119714
3736.71	-0.0118767
3738.64	-0.0155872
3740.57	-0.0216236
3742.5	-0.0274918
3744.43	-0.0284811
3746.36	-0.0212248
3748.29	-0.009274
3750.22	-0.000457941
3752.15	0.00112875
3754.07	-0.0010388
3756	-0.00209202
3757.93	-0.00204513
3759.86	-0.00409299
3761.79	-0.00902695
3763.72	-0.013671
3765.65	-0.0153113
3767.58	-0.0147777
3769.51	-0.0146432
3771.44	-0.0149778
3773.37	-0.0131092
3775.29	-0.00760095
3777.22	-0.000625765
3779.15	0.00301955
3781.08	0.000356762
3783.01	-0.00639387
3784.94	-0.0124625
3786.87	-0.0151489
3788.8	-0.0152956
3790.73	-0.0154585
3792.66	-0.0172478
3794.59	-0.0204832
3796.52	-0.0240344
3798.44	-0.0264229
3800.37	-0.0261583
3802.3	-0.0231601
3804.23	-0.0200013
3806.16	-0.0200133
3808.09	-0.0234756
3810.02	-0.0269651
3811.95	-0.0266866
3813.88	-0.0219347
3815.81	-0.0162428
3817.74	-0.0146284
3819.66	-0.0181039
3821.59	-0.0223968
3823.52	-0.0232561
3825.45	-0.0206398
3827.38	-0.0172427
3829.31	-0.0153015
3831.24	-0.0152054
3833.17	-0.015905
3835.1	-0.0159391
3837.03	-0.0142322
3838.96	-0.0109389
3840.89	-0.00813016
3842.81	-0.0085891
3844.74	-0.0131495
3846.67	-0.0197888
3848.6	-0.0250965
3850.53	-0.0257522
3852.46	-0.0206027
3854.39	-0.0140157
3856.32	-0.0113401
3858.25	-0.0124961
3860.18	-0.0145783
3862.11	-0.0137359
3864.03	-0.00689634
3865.96	0.00386493
3867.89	0.0112292
3869.82	0.00894883
3871.75	-0.0014133
3873.68	-0.0111757
3875.61	-0.0138848
3877.54	-0.0101955
3879.47	-0.00480076
3881.4	-0.00193745
3883.33	-0.00260621
3885.25	-0.00492928
3887.18	-0.00678511
3889.11	-0.00785239
3891.04	-0.00932009
3892.97	-0.0115587
3894.9	-0.0126932
3896.83	-0.0104673
3898.76	-0.00555761
3900.69	-0.00268659
3902.62	-0.00592041
3904.55	-0.012228
3906.48	-0.0153879
3908.4	-0.0140215
3910.33	-0.0116021
3912.26	-0.0116849
3914.19	-0.0143709
3916.12	-0.0166796
3918.05	-0.0162367
3919.98	-0.013876
3921.91	-0.0118552
3923.84	-0.0108503
3925.77	-0.00991096
3927.7	-0.00870905
3929.62	-0.00848293
3931.55	-0.0100863
3933.48	-0.0118804
3935.41	-0.0112136
3937.34	-0.00782993
3939.27	-0.00432729
3941.2	-0.00352968
3943.13	-0.00602106
3945.06	-0.0102987
3946.99	-0.0145699
3948.92	-0.0174548
3950.85	-0.018104
3952.77	-0.0171766
3954.7	-0.0169424
3956.63	-0.0190713
3958.56	-0.0224984
3960.49	-0.0244894
3962.42	-0.0238749
3964.35	-0.0219446
3966.28	-0.0201997
3968.21	-0.0189805
3970.14	-0.0185897
3972.07	-0.0198611
3973.99	-0.0223132
3975.92	-0.0230591
3977.85	-0.0195775
3979.78	-0.0134707
3981.71	-0.00971378
3983.64	-0.011553
3985.57	-0.0171628
3987.5	-0.0216383
3989.43	-0.0215856
3991.36	-0.0176298
3993.29	-0.0130514
3995.22	-0.0108447
3997.14	-0.0120121
3999.07	-0.0154997
4001	-0.0191985
4002.93	-0.0213122
4004.86	-0.0210309
4006.79	-0.0183577
4008.72	-0.0140214
4010.65	-0.00969052
4012.58	-0.00750867
4014.51	-0.00859851
4016.44	-0.0119487
4018.36	-0.0152943
4020.29	-0.0172748
4022.22	-0.0182621
4024.15	-0.0190185
4026.08	-0.019248
4028.01	-0.0179668
4029.94	-0.015117
4031.87	-0.0123576
4033.8	-0.0118209
4035.73	-0.0139431
4037.66	-0.0168594
4039.58	-0.0181749
4041.51	-0.0173212
4043.44	-0.0159815
4045.37	-0.0159651
4047.3	-0.0170943
4049.23	-0.0175953
4051.16	-0.016112
4053.09	-0.0128965
4055.02	-0.00954085
4056.95	-0.00822428
4058.88	-0.0104581
4060.81	-0.0152086
4062.73	-0.0186172
4064.66	-0.0172309
4066.59	-0.0119668
4068.52	-0.00741846
4070.45	-0.00681944
4072.38	-0.00963783
4074.31	-0.0141082
4076.24	-0.0192488
4078.17	-0.0231817
4080.1	-0.0223586
4082.03	-0.0155307
4083.95	-0.00725006
4085.88	-0.0040496
4087.81	-0.00688858
4089.74	-0.0105147
4091.67	-0.0106856
4093.6	-0.00864935
4095.53	-0.00743298
4097.46	-0.00704999
4099.39	-0.00601051
4101.32	-0.00522064
4103.25	-0.00693647
4105.18	-0.0104982
4107.1	-0.0123823
4109.03	-0.0110919
4110.96	-0.00918046
4112.89	-0.00957437
4114.82	-0.0118511
4116.75	-0.0133016
4118.68	-0.0128349
4120.61	-0.0124485
4122.54	-0.0147852
4124.47	-0.0198776
4126.4	-0.0244788
4128.32	-0.0247671
4130.25	-0.0199653
4132.18	-0.0131034
4134.11	-0.00795708
4136.04	-0.00559598
4137.97	-0.00429727
4139.9	-0.0023073
4141.83	0.000221203
4143.76	0.00174285
4145.69	0.000637879
4147.62	-0.00395838
4149.54	-0.0115381
4151.47	-0.0199676
4153.4	-0.0264049
4155.33	-0.0289291
4157.26	-0.0273451
4159.19	-0.0228676
4161.12	-0.017601
4163.05	-0.0138952
4164.98	-0.0131075
4166.91	-0.0145239
4168.84	-0.0159048
4170.77	-0.0155823
4172.69	-0.0139735
4174.62	-0.0131982
4176.55	-0.015523
4178.48	-0.0212358
4180.41	-0.0272225
4182.34	-0.0287172
4184.27	-0.023829
4186.2	-0.0165914
4188.13	-0.014212
4190.06	-0.0199695
4191.99	-0.0298128
4193.91	-0.0365413
4195.84	-0.0361546
4197.77	-0.0295539
4199.7	-0.0196743
4201.63	-0.00967737
4203.56	-0.0036285
4205.49	-0.00544111
4207.42	-0.0150896
4209.35	-0.0270969
4211.28	-0.0344717
4213.21	-0.03443
4215.14	-0.0294056
4217.06	-0.0228776
4218.99	-0.0163806
4220.92	-0.0110014
4222.85	-0.0093003
4224.78	-0.0129913
4226.71	-0.0192286
4228.64	-0.0220434
4230.57	-0.0190828
4232.5	-0.0151365
4234.43	-0.0163187
4236.36	-0.0220976
4238.28	-0.0258797
4240.21	-0.0233745
4242.14	-0.0178395
4244.07	-0.0158944
4246	-0.0201096
4247.93	-0.0271206
4249.86	-0.0316628
4251.79	-0.030838
4253.72	-0.0253175
4255.65	-0.0182979
4257.58	-0.0134401
4259.5	-0.0127015
4261.43	-0.0155517
4263.36	-0.0200033
4265.29	-0.0239087
4267.22	-0.0254201
4269.15	-0.023468
4271.08	-0.0188227
4273.01	-0.0141825
4274.94	-0.0123067
4276.87	-0.013902
4278.8	-0.0174895
4280.73	-0.0213484
4282.65	-0.0250856
4284.58	-0.0288279
4286.51	-0.0313407
4288.44	-0.0299915
4290.37	-0.0234952
4292.3	-0.014605
4294.23	-0.00864859
4296.16	-0.00837837
4298.09	-0.0111985
4300.02	-0.0125719
4301.95	-0.0114879
4303.87	-0.0111264
4305.8	-0.0139782
4307.73	-0.0181256
4309.66	-0.0199067
4311.59	-0.0188751
4313.52	-0.0178809
4315.45	-0.0187307
4317.38	-0.0198546
4319.31	-0.0190485
4321.24	-0.0168978
4323.17	-0.0160723
4325.1	-0.0179851
4327.02	-0.0213873
4328.95	-0.0241998
4330.88	-0.025357
4332.81	-0.0247087
4334.74	-0.0225246
4336.67	-0.0198336
4338.6	-0.0185876
4340.53	-0.0204516
4342.46	-0.0249124
4344.39	-0.0291374
4346.32	-0.0304335
4348.24	-0.0284416
4350.17	-0.0248588
4352.1	-0.0214863
4354.03	-0.0186421
4355.96	-0.0154868
4357.89	-0.0118255
4359.82	-0.00934092
4361.75	-0.0103245
4363.68	-0.0148381
4365.61	-0.0198857
4367.54	-0.0219556
4369.46	-0.0201732
4371.39	-0.016468
4373.32	-0.0129939
4375.25	-0.0104311
4377.18	-0.0088838
4379.11	-0.00900723
4381.04	-0.0110494
4382.97	-0.0135883
4384.9	-0.0146572
4386.83	-0.0142131
4388.76	-0.0146312
4390.69	-0.0181948
4392.61	-0.0240208
4394.54	-0.0280027
4396.47	-0.0262384
4398.4	-0.0187093
4400.33	-0.00997039
4402.26	-0.00536107
4404.19	-0.0061144
4406.12	-0.00930965
4408.05	-0.0118688
4409.98	-0.0127406
4411.91	-0.0117472
4413.83	-0.00934594
4415.76	-0.00860566
4417.69	-0.0138223
4419.62	-0.0243373
4421.55	-0.0328545
4423.48	-0.0330404
4425.41	-0.0278349
4427.34	-0.026716
4429.27	-0.033496
4431.2	-0.0419033
4433.13	-0.0447296
4435.06	-0.0422628
4436.98	-0.0393348
4438.91	-0.0376815
4440.84	-0.0351287
4442.77	-0.0306881
4444.7	-0.0263307
4446.63	-0.0236754
4448.56	-0.0222065
4450.49	-0.0213934
4452.42	-0.021961
4454.35	-0.0238741
4456.28	-0.0248933
4458.2	-0.022768
4460.13	-0.0182595
4462.06	-0.014694
4463.99	-0.0144671
4465.92	-0.0168302
4467.85	-0.0192607
4469.78	-0.0202402
4471.71	-0.0202442
4473.64	-0.0203285
4475.57	-0.0205674
4477.5	-0.0202918
4479.43	-0.0192184
4481.35	-0.0176707
4483.28	-0.0161804
4485.21	-0.0157168
4487.14	-0.0175298
4489.07	-0.0211875
4491	-0.0233366
4492.93	-0.0209621
4494.86	-0.0161327
4496.79	-0.0146616
4498.72	-0.0191339
4500.65	-0.0254604
4502.57	-0.0280779
4504.5	-0.0271334
4506.43	-0.027163
4508.36	-0.0296638
4510.29	-0.0308646
4512.22	-0.0270755
4514.15	-0.0194492
4516.08	-0.0122565
4518.01	-0.00867556
4519.94	-0.0092054
4521.87	-0.0121833
4523.79	-0.0148239
4525.72	-0.0151869
4527.65	-0.0142682
4529.58	-0.015187
4531.51	-0.0191266
4533.44	-0.0228676
4535.37	-0.0220736
4537.3	-0.0167521
4539.23	-0.0116075
4541.16	-0.0112027
4543.09	-0.0163107
4545.02	-0.0246581
4546.94	-0.0334097
4548.87	-0.040067
4550.8	-0.0422412
4552.73	-0.0386312
4554.66	-0.031087
4556.59	-0.0246755
4558.52	-0.023638
4560.45	-0.0268295
4562.38	-0.0287055
4564.31	-0.0256368
4566.24	-0.0204333
4568.16	-0.0190283
4570.09	-0.0234046
4572.02	-0.0304662
4573.95	-0.03707
4575.88	-0.0426233
4577.81	-0.0460028
4579.74	-0.04392
4581.67	-0.0357482
4583.6	-0.0267845
4585.53	-0.0224729
4587.46	-0.0213016
4589.39	-0.0176736
4591.31	-0.0114869
4593.24	-0.00923454
4595.17	-0.0137656
4597.1	-0.0191008
4599.03	-0.0189582
4600.96	-0.0160395
4602.89	-0.0179051
4604.82	-0.0256013
4606.75	-0.0327709
4608.68	-0.0355313
4610.61	-0.0367554
4612.53	-0.0400365
4614.46	-0.0442629
4616.39	-0.0461272
4618.32	-0.0445363
4620.25	-0.0397634
4622.18	-0.0313944
4624.11	-0.0206256
4626.04	-0.0124859
4627.97	-0.0119006
4629.9	-0.0174806
4631.83	-0.0224735
4633.75	-0.0228237
4635.68	-0.0212149
4637.61	-0.0222173
4639.54	-0.0257103
4641.47	-0.0271333
4643.4	-0.0236057
4645.33	-0.0175137
4647.26	-0.0142706
4649.19	-0.0175593
4651.12	-0.0263197
4653.05	-0.0357103
4654.98	-0.0409482
4656.9	-0.0408114
4658.83	-0.0376392
4660.76	-0.0339071
4662.69	-0.0294653
4664.62	-0.0229186
4666.55	-0.0156254
4668.48	-0.0129194
4670.41	-0.0195327
4672.34	-0.0332333
4674.27	-0.0441656
4676.2	-0.0423009
4678.12	-0.0279627
4680.05	-0.0139243
4681.98	-0.0124625
4683.91	-0.022049
4685.84	-0.0299554
4687.77	-0.0271213
4689.7	-0.0183974
4691.63	-0.0141457
4693.56	-0.016068
4695.49	-0.0180151
4697.42	-0.0176134
4699.35	-0.0202203
4701.27	-0.0294611
4703.2	-0.0401379
4705.13	-0.0438944
4707.06	-0.0389465
4708.99	-0.0310122
4710.92	-0.0251011
4712.85	-0.0212985
4714.78	-0.0187848
4716.71	-0.0185565
4718.64	-0.0207305
4720.57	-0.0225835
4722.49	-0.0216893
4724.42	-0.018977
4726.35	-0.0164785
4728.28	-0.0140039
4730.21	-0.0101715
4732.14	-0.00572499
4734.07	-0.00381937
4736	-0.00681948
4737.93	-0.0136936
4739.86	-0.0205144
4741.79	-0.0234133
4743.71	-0.0217717
4745.64	-0.0190742
4747.57	-0.0201465
4749.5	-0.0263264
4751.43	-0.0328838
4753.36	-0.0325957
4755.29	-0.0236264
4757.22	-0.0128427
4759.15	-0.00876091
4761.08	-0.0121991
4763.01	-0.0165994
4764.94	-0.0169649
4766.86	-0.015129
4768.79	-0.0147147
4770.72	-0.0144385
4772.65	-0.0103564
4774.58	-0.00367087
4776.51	-0.00120085
4778.44	-0.00642979
4780.37	-0.0147814
4782.3	-0.0192384
4784.23	-0.0176337
4786.16	-0.0129523
4788.08	-0.0083314
4790.01	-0.00511376
4791.94	-0.00491405
4793.87	-0.00962562
4795.8	-0.0181565
4797.73	-0.0253806
4799.66	-0.0261941
4801.59	-0.020338
4803.52	-0.0132824
4805.45	-0.0119129
4807.38	-0.0179274
4809.31	-0.0258866
4811.23	-0.0290111
4813.16	-0.0270702
4815.09	-0.0266612
4817.02	-0.0324027
4818.95	-0.0405624
4820.88	-0.0436727
4822.81	-0.0402934
4824.74	-0.0365033
4826.67	-0.0375751
4828.6	-0.0423038
4830.53	-0.045946
4832.45	-0.0461091
4834.38	-0.0441774
4836.31	-0.0424506
4838.24	-0.0417478
4840.17	-0.0412165
4842.1	-0.0395469
4844.03	-0.0364609
4845.96	-0.0332935
4847.89	-0.0316044
4849.82	-0.0311932
4851.75	-0.0307332
4853.68	-0.0298289
4855.6	-0.0288717
4857.53	-0.0273214
4859.46	-0.0240631
4861.39	-0.0197433
4863.32	-0.0168887
4865.25	-0.017046
4867.18	-0.0192907
4869.11	-0.022641
4871.04	-0.0279221
4872.97	-0.0350447
4874.9	-0.040249
4876.82	-0.0391996
4878.75	-0.0330562
4880.68	-0.0283745
4882.61	-0.0297127
4884.54	-0.0352719
4886.47	-0.0402734
4888.4	-0.0424826
4890.33	-0.0431416
4892.26	-0.0432157
4894.19	-0.0417785
4896.12	-0.0383428
4898.04	-0.034292
4899.97	-0.031124
4901.9	-0.0285772
4903.83	-0.0254976
4905.76	-0.021678
4907.69	-0.0179879
4909.62	-0.0153493
4911.55	-0.0143378
4913.48	-0.0152686
4915.41	-0.0178298
4917.34	-0.0206034
4919.27	-0.0215195
4921.19	-0.0196275
4923.12	-0.0168493
4925.05	-0.0167073
4926.98	-0.0199614
4928.91	-0.0224022
4930.84	-0.0193638
4932.77	-0.0134151
4934.7	-0.0137106
4936.63	-0.0241733
4938.56	-0.0364367
4940.49	-0.0390296
4942.41	-0.0315383
4944.34	-0.0254942
4946.27	-0.0298048
4948.2	-0.039639
4950.13	-0.0439998
4952.06	-0.0402998
4953.99	-0.0358068
4955.92	-0.036997
4957.85	-0.0431199
4959.78	-0.0493009
4961.71	-0.0516944
4963.64	-0.0485581
4965.56	-0.0393985
4967.49	-0.0264994
4969.42	-0.0161698
4971.35	-0.0143163
4973.28	-0.0203507
4975.21	-0.0285867
4977.14	-0.0342706
4979.07	-0.0359931
4981	-0.0340723
4982.93	-0.0297303
4984.86	-0.0260792
4986.78	-0.0266962
4988.71	-0.0313437
4990.64	-0.0348931
4992.57	-0.0327972
4994.5	-0.0266998
4996.43	-0.0218059
4998.36	-0.0197932
