##TITLE=еуые
##$NOTE=11.03.2023 10:11:3 ^0 x10 v:1 [Без приставки]
##$ITAB=-1,-1
##FIRSTX=499.643
##DELTAX=1.92912
##NPOINTS=2333
##XUNITS=1/CM
##YUNITS=TRANSMITTANCE
499.643	255953
501.572	283654
503.501	318168
505.43	359299
507.36	404556
509.289	451504
511.218	498363
513.147	543620
515.076	586848
517.005	629585
518.934	673839
520.863	719663
522.792	765590
524.722	811408
526.651	858667
528.58	907709
530.509	955903
532.438	1.0001e+006
534.367	1.03966e+006
536.296	1.07579e+006
538.225	1.10922e+006
540.155	1.1401e+006
542.084	1.1693e+006
544.013	1.1977e+006
545.942	1.22462e+006
547.871	1.24881e+006
549.8	1.27036e+006
551.729	1.28987e+006
553.658	1.30635e+006
555.588	1.31846e+006
557.517	1.32757e+006
559.446	1.33683e+006
561.375	1.34699e+006
563.304	1.35617e+006
565.233	1.3642e+006
567.162	1.37431e+006
569.091	1.38917e+006
571.021	1.40817e+006
572.95	1.43025e+006
574.879	1.45722e+006
576.808	1.49206e+006
578.737	1.53552e+006
580.666	1.58575e+006
582.595	1.63984e+006
584.524	1.69425e+006
586.454	1.74579e+006
588.383	1.79415e+006
590.312	1.84266e+006
592.241	1.89451e+006
594.17	1.9486e+006
596.099	1.99991e+006
598.028	2.04337e+006
599.957	2.07691e+006
601.887	2.10121e+006
603.816	2.11765e+006
605.745	2.12672e+006
607.674	2.12888e+006
609.603	2.12649e+006
611.532	2.12355e+006
613.461	2.12354e+006
615.39	2.12966e+006
617.32	2.14724e+006
619.249	2.18171e+006
621.178	2.23241e+006
623.107	2.29205e+006
625.036	2.35444e+006
626.965	2.4178e+006
628.894	2.47885e+006
630.823	2.53087e+006
632.753	2.57237e+006
634.682	2.61052e+006
636.611	2.65067e+006
638.54	2.69075e+006
640.469	2.73151e+006
642.398	2.78043e+006
644.327	2.83622e+006
646.256	2.88381e+006
648.186	2.9188e+006
650.115	2.96014e+006
652.044	3.01962e+006
653.973	3.07929e+006
655.902	3.12933e+006
657.831	3.20268e+006
659.76	3.31668e+006
661.689	3.39193e+006
663.619	3.31139e+006
665.548	3.09446e+006
667.477	2.94201e+006
669.406	3.03878e+006
671.335	3.34318e+006
673.264	3.63952e+006
675.193	3.7807e+006
677.122	3.80885e+006
679.052	3.84018e+006
680.981	3.91456e+006
682.91	3.99695e+006
684.839	4.06634e+006
686.768	4.14114e+006
688.697	4.23483e+006
690.626	4.33609e+006
692.555	4.43394e+006
694.485	4.53181e+006
696.414	4.63245e+006
698.343	4.7297e+006
700.272	4.81923e+006
702.201	4.90323e+006
704.13	4.98226e+006
706.059	5.05428e+006
707.988	5.12317e+006
709.917	5.19726e+006
711.847	5.27598e+006
713.776	5.34675e+006
715.705	5.40009e+006
717.634	5.44366e+006
719.563	5.49668e+006
721.492	5.57132e+006
723.421	5.66161e+006
725.35	5.75085e+006
727.28	5.82853e+006
729.209	5.89787e+006
731.138	5.96702e+006
733.067	6.03765e+006
734.996	6.10602e+006
736.925	6.17173e+006
738.854	6.23868e+006
740.783	6.30859e+006
742.713	6.37926e+006
744.642	6.44874e+006
746.571	6.51551e+006
748.5	6.57602e+006
750.429	6.62873e+006
752.358	6.67959e+006
754.287	6.73532e+006
756.216	6.79194e+006
758.146	6.84005e+006
760.075	6.88346e+006
762.004	6.94114e+006
763.933	7.02397e+006
765.862	7.11771e+006
767.791	7.19757e+006
769.72	7.25437e+006
771.649	7.29869e+006
773.579	7.3433e+006
775.508	7.39111e+006
777.437	7.43961e+006
779.366	7.4885e+006
781.295	7.53917e+006
783.224	7.59125e+006
785.153	7.64308e+006
787.082	7.69417e+006
789.012	7.7452e+006
790.941	7.79644e+006
792.87	7.847e+006
794.799	7.89556e+006
796.728	7.94169e+006
798.657	7.98593e+006
800.586	8.02723e+006
802.515	8.06006e+006
804.445	8.07692e+006
806.374	8.07655e+006
808.303	8.06935e+006
810.232	8.07211e+006
812.161	8.09592e+006
814.09	8.13931e+006
816.019	8.19249e+006
817.948	8.24683e+006
819.878	8.30027e+006
821.807	8.3554e+006
823.736	8.41426e+006
825.665	8.47546e+006
827.594	8.53593e+006
829.523	8.59438e+006
831.452	8.65139e+006
833.381	8.70526e+006
835.311	8.74956e+006
837.24	8.7778e+006
839.169	8.79132e+006
841.098	8.79983e+006
843.027	8.81219e+006
844.956	8.82829e+006
846.885	8.84277e+006
848.814	8.85579e+006
850.744	8.87618e+006
852.673	8.91297e+006
854.602	8.96648e+006
856.531	9.02949e+006
858.46	9.09488e+006
860.389	9.15972e+006
862.318	9.22357e+006
864.247	9.28621e+006
866.177	9.34774e+006
868.106	9.40906e+006
870.035	9.47128e+006
871.964	9.53531e+006
873.893	9.60223e+006
875.822	9.67297e+006
877.751	9.74682e+006
879.68	9.82103e+006
881.609	9.89261e+006
883.539	9.96092e+006
885.468	1.00278e+007
887.397	1.0095e+007
889.326	1.0162e+007
891.255	1.02268e+007
893.184	1.02885e+007
895.113	1.03485e+007
897.042	1.04074e+007
898.972	1.04637e+007
900.901	1.0516e+007
902.83	1.05661e+007
904.759	1.06183e+007
906.688	1.06746e+007
908.617	1.07325e+007
910.546	1.07879e+007
912.475	1.08397e+007
914.405	1.08897e+007
916.334	1.09408e+007
918.263	1.09934e+007
920.192	1.10469e+007
922.121	1.11011e+007
924.05	1.11571e+007
925.979	1.12154e+007
927.908	1.12744e+007
929.838	1.13325e+007
931.767	1.139e+007
933.696	1.14492e+007
935.625	1.15106e+007
937.554	1.15725e+007
939.483	1.16358e+007
941.412	1.17052e+007
943.341	1.17836e+007
945.271	1.18672e+007
947.2	1.1948e+007
949.129	1.20234e+007
951.058	1.20979e+007
952.987	1.21764e+007
954.916	1.22579e+007
956.845	1.2336e+007
958.774	1.24065e+007
960.704	1.2471e+007
962.633	1.25359e+007
964.562	1.26089e+007
966.491	1.26942e+007
968.42	1.27904e+007
970.349	1.28917e+007
972.278	1.2992e+007
974.207	1.30882e+007
976.137	1.31808e+007
978.066	1.32714e+007
979.995	1.33617e+007
981.924	1.34533e+007
983.853	1.35462e+007
985.782	1.36377e+007
987.711	1.37252e+007
989.64	1.38093e+007
991.57	1.38938e+007
993.499	1.39789e+007
995.428	1.40584e+007
997.357	1.41253e+007
999.286	1.41814e+007
1001.22	1.42358e+007
1003.14	1.42958e+007
1005.07	1.43594e+007
1007	1.44202e+007
1008.93	1.44754e+007
1010.86	1.45268e+007
1012.79	1.45751e+007
1014.72	1.46183e+007
1016.65	1.46543e+007
1018.58	1.46839e+007
1020.51	1.47106e+007
1022.44	1.47373e+007
1024.36	1.47644e+007
1026.29	1.47893e+007
1028.22	1.48085e+007
1030.15	1.48218e+007
1032.08	1.48338e+007
1034.01	1.48497e+007
1035.94	1.48696e+007
1037.87	1.48885e+007
1039.8	1.4901e+007
1041.73	1.49068e+007
1043.66	1.49108e+007
1045.58	1.49181e+007
1047.51	1.49307e+007
1049.44	1.49469e+007
1051.37	1.49641e+007
1053.3	1.49818e+007
1055.23	1.50016e+007
1057.16	1.50257e+007
1059.09	1.50554e+007
1061.02	1.50903e+007
1062.95	1.51285e+007
1064.88	1.51671e+007
1066.81	1.52044e+007
1068.73	1.52414e+007
1070.66	1.52794e+007
1072.59	1.53183e+007
1074.52	1.53571e+007
1076.45	1.53969e+007
1078.38	1.54401e+007
1080.31	1.54873e+007
1082.24	1.55357e+007
1084.17	1.55834e+007
1086.1	1.56331e+007
1088.03	1.56898e+007
1089.95	1.57561e+007
1091.88	1.5829e+007
1093.81	1.59027e+007
1095.74	1.5974e+007
1097.67	1.60438e+007
1099.6	1.61134e+007
1101.53	1.6181e+007
1103.46	1.62422e+007
1105.39	1.62934e+007
1107.32	1.63341e+007
1109.25	1.6366e+007
1111.18	1.63914e+007
1113.1	1.6413e+007
1115.03	1.64335e+007
1116.96	1.64543e+007
1118.89	1.64752e+007
1120.82	1.64971e+007
1122.75	1.65237e+007
1124.68	1.65592e+007
1126.61	1.6605e+007
1128.54	1.66578e+007
1130.47	1.67117e+007
1132.4	1.67621e+007
1134.32	1.68079e+007
1136.25	1.68502e+007
1138.18	1.68899e+007
1140.11	1.69265e+007
1142.04	1.69592e+007
1143.97	1.69873e+007
1145.9	1.70097e+007
1147.83	1.70249e+007
1149.76	1.70349e+007
1151.69	1.70463e+007
1153.62	1.7067e+007
1155.55	1.70992e+007
1157.47	1.71379e+007
1159.4	1.71759e+007
1161.33	1.72109e+007
1163.26	1.7245e+007
1165.19	1.72795e+007
1167.12	1.73117e+007
1169.05	1.7337e+007
1170.98	1.7355e+007
1172.91	1.73694e+007
1174.84	1.73835e+007
1176.77	1.73957e+007
1178.69	1.74017e+007
1180.62	1.74001e+007
1182.55	1.73933e+007
1184.48	1.73843e+007
1186.41	1.73738e+007
1188.34	1.73607e+007
1190.27	1.7341e+007
1192.2	1.73091e+007
1194.13	1.7261e+007
1196.06	1.71993e+007
1197.99	1.71332e+007
1199.91	1.70729e+007
1201.84	1.70245e+007
1203.77	1.69892e+007
1205.7	1.69637e+007
1207.63	1.69433e+007
1209.56	1.69246e+007
1211.49	1.69076e+007
1213.42	1.68925e+007
1215.35	1.68773e+007
1217.28	1.68586e+007
1219.21	1.68349e+007
1221.14	1.68055e+007
1223.06	1.67687e+007
1224.99	1.67243e+007
1226.92	1.66764e+007
1228.85	1.66315e+007
1230.78	1.65924e+007
1232.71	1.65587e+007
1234.64	1.65317e+007
1236.57	1.65163e+007
1238.5	1.65185e+007
1240.43	1.65441e+007
1242.36	1.65991e+007
1244.28	1.66861e+007
1246.21	1.68001e+007
1248.14	1.69304e+007
1250.07	1.70682e+007
1252	1.72082e+007
1253.93	1.73439e+007
1255.86	1.74666e+007
1257.79	1.75737e+007
1259.72	1.76741e+007
1261.65	1.77751e+007
1263.58	1.78648e+007
1265.51	1.79162e+007
1267.43	1.79189e+007
1269.36	1.79017e+007
1271.29	1.79139e+007
1273.22	1.79806e+007
1275.15	1.80824e+007
1277.08	1.81821e+007
1279.01	1.8259e+007
1280.94	1.83139e+007
1282.87	1.83512e+007
1284.8	1.83744e+007
1286.73	1.83931e+007
1288.65	1.8421e+007
1290.58	1.84601e+007
1292.51	1.84987e+007
1294.44	1.85258e+007
1296.37	1.85418e+007
1298.3	1.85516e+007
1300.23	1.85567e+007
1302.16	1.85575e+007
1304.09	1.85567e+007
1306.02	1.85542e+007
1307.95	1.85428e+007
1309.87	1.85153e+007
1311.8	1.84709e+007
1313.73	1.84143e+007
1315.66	1.83539e+007
1317.59	1.83082e+007
1319.52	1.83028e+007
1321.45	1.8347e+007
1323.38	1.84158e+007
1325.31	1.84725e+007
1327.24	1.85124e+007
1329.17	1.85583e+007
1331.1	1.8599e+007
1333.02	1.8564e+007
1334.95	1.84058e+007
1336.88	1.82003e+007
1338.81	1.81097e+007
1340.74	1.82196e+007
1342.67	1.84459e+007
1344.6	1.86296e+007
1346.53	1.86925e+007
1348.46	1.86739e+007
1350.39	1.86488e+007
1352.32	1.8654e+007
1354.24	1.86657e+007
1356.17	1.86096e+007
1358.1	1.84237e+007
1360.03	1.81646e+007
1361.96	1.80164e+007
1363.89	1.81156e+007
1365.82	1.83733e+007
1367.75	1.85461e+007
1369.68	1.84943e+007
1371.61	1.83111e+007
1373.54	1.81992e+007
1375.47	1.82843e+007
1377.39	1.85387e+007
1379.32	1.88014e+007
1381.25	1.887e+007
1383.18	1.86759e+007
1385.11	1.83915e+007
1387.04	1.82619e+007
1388.97	1.82976e+007
1390.9	1.82533e+007
1392.83	1.79738e+007
1394.76	1.76373e+007
1396.69	1.755e+007
1398.61	1.77839e+007
1400.54	1.81358e+007
1402.47	1.83907e+007
1404.4	1.85121e+007
1406.33	1.85989e+007
1408.26	1.8744e+007
1410.19	1.89123e+007
1412.12	1.88997e+007
1414.05	1.8492e+007
1415.98	1.77722e+007
1417.91	1.71967e+007
1419.83	1.72015e+007
1421.76	1.77343e+007
1423.69	1.83221e+007
1425.62	1.86034e+007
1427.55	1.86223e+007
1429.48	1.85539e+007
1431.41	1.83636e+007
1433.34	1.7952e+007
1435.27	1.75348e+007
1437.2	1.75764e+007
1439.13	1.8215e+007
1441.06	1.89502e+007
1442.98	1.91487e+007
1444.91	1.88078e+007
1446.84	1.85209e+007
1448.77	1.85982e+007
1450.7	1.85558e+007
1452.63	1.78002e+007
1454.56	1.66157e+007
1456.49	1.59966e+007
1458.42	1.6462e+007
1460.35	1.74862e+007
1462.28	1.82614e+007
1464.2	1.85814e+007
1466.13	1.86589e+007
1468.06	1.84886e+007
1469.99	1.79425e+007
1471.92	1.73276e+007
1473.85	1.72705e+007
1475.78	1.79689e+007
1477.71	1.8953e+007
1479.64	1.96526e+007
1481.57	1.98512e+007
1483.5	1.95592e+007
1485.43	1.88913e+007
1487.35	1.8208e+007
1489.28	1.79395e+007
1491.21	1.80315e+007
1493.14	1.79507e+007
1495.07	1.75002e+007
1497	1.7194e+007
1498.93	1.7412e+007
1500.86	1.75901e+007
1502.79	1.68956e+007
1504.72	1.55535e+007
1506.65	1.48003e+007
1508.57	1.53867e+007
1510.5	1.66781e+007
1512.43	1.74803e+007
1514.36	1.73175e+007
1516.29	1.65858e+007
1518.22	1.58392e+007
1520.15	1.53915e+007
1522.08	1.54317e+007
1524.01	1.60103e+007
1525.94	1.68295e+007
1527.87	1.73873e+007
1529.8	1.74596e+007
1531.72	1.72154e+007
1533.65	1.67736e+007
1535.58	1.59552e+007
1537.51	1.47254e+007
1539.44	1.36605e+007
1541.37	1.35596e+007
1543.3	1.45469e+007
1545.23	1.58771e+007
1547.16	1.67485e+007
1549.09	1.70032e+007
1551.02	1.68234e+007
1552.94	1.61254e+007
1554.87	1.47974e+007
1556.8	1.3431e+007
1558.73	1.31368e+007
1560.66	1.43166e+007
1562.59	1.60459e+007
1564.52	1.70702e+007
1566.45	1.7136e+007
1568.38	1.69176e+007
1570.31	1.68853e+007
1572.24	1.68573e+007
1574.16	1.66727e+007
1576.09	1.66797e+007
1578.02	1.72445e+007
1579.95	1.81519e+007
1581.88	1.88538e+007
1583.81	1.91261e+007
1585.74	1.91792e+007
1587.67	1.92382e+007
1589.6	1.93049e+007
1591.53	1.93141e+007
1593.46	1.92883e+007
1595.39	1.92829e+007
1597.31	1.93029e+007
1599.24	1.93131e+007
1601.17	1.92723e+007
1603.1	1.91747e+007
1605.03	1.9096e+007
1606.96	1.91327e+007
1608.89	1.92153e+007
1610.82	1.90738e+007
1612.75	1.85423e+007
1614.68	1.78688e+007
1616.61	1.75386e+007
1618.53	1.77283e+007
1620.46	1.80921e+007
1622.39	1.82295e+007
1624.32	1.82397e+007
1626.25	1.85426e+007
1628.18	1.91214e+007
1630.11	1.9303e+007
1632.04	1.86103e+007
1633.97	1.76282e+007
1635.9	1.75021e+007
1637.83	1.85039e+007
1639.76	1.96047e+007
1641.68	1.9741e+007
1643.61	1.90292e+007
1645.54	1.827e+007
1647.47	1.76915e+007
1649.4	1.6948e+007
1651.33	1.62219e+007
1653.26	1.6411e+007
1655.19	1.78977e+007
1657.12	1.97919e+007
1659.05	2.08849e+007
1660.98	2.09547e+007
1662.9	2.06634e+007
1664.83	2.04859e+007
1666.76	2.02917e+007
1668.69	1.98862e+007
1670.62	1.94688e+007
1672.55	1.94249e+007
1674.48	1.98753e+007
1676.41	2.04722e+007
1678.34	2.05806e+007
1680.27	1.98356e+007
1682.2	1.86918e+007
1684.12	1.82098e+007
1686.05	1.90018e+007
1687.98	2.04826e+007
1689.91	2.14075e+007
1691.84	2.10655e+007
1693.77	1.97535e+007
1695.7	1.82865e+007
1697.63	1.73829e+007
1699.56	1.74003e+007
1701.49	1.82408e+007
1703.42	1.94264e+007
1705.35	2.04909e+007
1707.27	2.12849e+007
1709.2	2.17349e+007
1711.13	2.15343e+007
1713.06	2.05241e+007
1714.99	1.93016e+007
1716.92	1.89022e+007
1718.85	1.97114e+007
1720.78	2.1074e+007
1722.71	2.21098e+007
1724.64	2.25019e+007
1726.57	2.23118e+007
1728.49	2.15422e+007
1730.42	2.03382e+007
1732.35	1.93079e+007
1734.28	1.90958e+007
1736.21	1.96749e+007
1738.14	2.04309e+007
1740.07	2.09073e+007
1742	2.11156e+007
1743.93	2.11472e+007
1745.86	2.09285e+007
1747.79	2.05239e+007
1749.72	2.03293e+007
1751.64	2.06611e+007
1753.57	2.13018e+007
1755.5	2.17139e+007
1757.43	2.16688e+007
1759.36	2.14622e+007
1761.29	2.14819e+007
1763.22	2.17119e+007
1765.15	2.17504e+007
1767.08	2.12848e+007
1769.01	2.04998e+007
1770.94	1.99877e+007
1772.86	2.0208e+007
1774.79	2.10182e+007
1776.72	2.17983e+007
1778.65	2.2084e+007
1780.58	2.20015e+007
1782.51	2.19836e+007
1784.44	2.21415e+007
1786.37	2.21288e+007
1788.3	2.16794e+007
1790.23	2.10664e+007
1792.16	2.08245e+007
1794.08	2.11003e+007
1796.01	2.15117e+007
1797.94	2.16786e+007
1799.87	2.16703e+007
1801.8	2.17934e+007
1803.73	2.20993e+007
1805.66	2.23266e+007
1807.59	2.22992e+007
1809.52	2.2167e+007
1811.45	2.21749e+007
1813.38	2.23452e+007
1815.31	2.25042e+007
1817.23	2.25294e+007
1819.16	2.24298e+007
1821.09	2.22214e+007
1823.02	2.18818e+007
1824.95	2.14703e+007
1826.88	2.11763e+007
1828.81	2.1165e+007
1830.74	2.14249e+007
1832.67	2.18091e+007
1834.6	2.21565e+007
1836.53	2.23105e+007
1838.45	2.21221e+007
1840.38	2.15948e+007
1842.31	2.10227e+007
1844.24	2.08219e+007
1846.17	2.11441e+007
1848.1	2.17282e+007
1850.03	2.21843e+007
1851.96	2.23507e+007
1853.89	2.23293e+007
1855.82	2.2277e+007
1857.75	2.22632e+007
1859.68	2.22654e+007
1861.6	2.21841e+007
1863.53	2.18996e+007
1865.46	2.14367e+007
1867.39	2.10604e+007
1869.32	2.10716e+007
1871.25	2.14727e+007
1873.18	2.19394e+007
1875.11	2.21689e+007
1877.04	2.21622e+007
1878.97	2.21104e+007
1880.9	2.2105e+007
1882.82	2.20684e+007
1884.75	2.1926e+007
1886.68	2.17318e+007
1888.61	2.16047e+007
1890.54	2.16038e+007
1892.47	2.16931e+007
1894.4	2.17956e+007
1896.33	2.18642e+007
1898.26	2.19049e+007
1900.19	2.19364e+007
1902.12	2.19379e+007
1904.05	2.18699e+007
1905.97	2.17541e+007
1907.9	2.16796e+007
1909.83	2.16886e+007
1911.76	2.16955e+007
1913.69	2.15815e+007
1915.62	2.13572e+007
1917.55	2.11691e+007
1919.48	2.11416e+007
1921.41	2.12631e+007
1923.34	2.14383e+007
1925.27	2.15899e+007
1927.19	2.1685e+007
1929.12	2.17154e+007
1931.05	2.17019e+007
1932.98	2.16867e+007
1934.91	2.16754e+007
1936.84	2.16091e+007
1938.77	2.14449e+007
1940.7	2.12516e+007
1942.63	2.11673e+007
1944.56	2.12493e+007
1946.49	2.1412e+007
1948.41	2.15276e+007
1950.34	2.15505e+007
1952.27	2.15208e+007
1954.2	2.14878e+007
1956.13	2.14694e+007
1958.06	2.14611e+007
1959.99	2.14445e+007
1961.92	2.13927e+007
1963.85	2.13044e+007
1965.78	2.12273e+007
1967.71	2.1218e+007
1969.64	2.12741e+007
1971.56	2.13357e+007
1973.49	2.13544e+007
1975.42	2.13357e+007
1977.35	2.1309e+007
1979.28	2.12876e+007
1981.21	2.12677e+007
1983.14	2.124e+007
1985.07	2.11851e+007
1987	2.10866e+007
1988.93	2.0969e+007
1990.86	2.08995e+007
1992.78	2.09238e+007
1994.71	2.10091e+007
1996.64	2.10786e+007
1998.57	2.1093e+007
2000.5	2.10742e+007
2002.43	2.10551e+007
2004.36	2.10412e+007
2006.29	2.10255e+007
2008.22	2.10084e+007
2010.15	2.09859e+007
2012.08	2.09425e+007
2014.01	2.08758e+007
2015.93	2.08163e+007
2017.86	2.07996e+007
2019.79	2.08242e+007
2021.72	2.08547e+007
2023.65	2.08621e+007
2025.58	2.08478e+007
2027.51	2.0827e+007
2029.44	2.08081e+007
2031.37	2.07917e+007
2033.3	2.07759e+007
2035.23	2.07557e+007
2037.15	2.07257e+007
2039.08	2.06911e+007
2041.01	2.06672e+007
2042.94	2.06624e+007
2044.87	2.06674e+007
2046.8	2.06659e+007
2048.73	2.06535e+007
2050.66	2.06374e+007
2052.59	2.06245e+007
2054.52	2.06138e+007
2056.45	2.06002e+007
2058.37	2.05778e+007
2060.3	2.05441e+007
2062.23	2.0505e+007
2064.16	2.04748e+007
2066.09	2.04638e+007
2068.02	2.04669e+007
2069.95	2.04691e+007
2071.88	2.04617e+007
2073.81	2.04475e+007
2075.74	2.04319e+007
2077.67	2.04163e+007
2079.6	2.04002e+007
2081.52	2.03833e+007
2083.45	2.03639e+007
2085.38	2.03399e+007
2087.31	2.03147e+007
2089.24	2.0297e+007
2091.17	2.02905e+007
2093.1	2.02881e+007
2095.03	2.02794e+007
2096.96	2.02623e+007
2098.89	2.0243e+007
2100.82	2.02266e+007
2102.74	2.02128e+007
2104.67	2.01989e+007
2106.6	2.01834e+007
2108.53	2.01655e+007
2110.46	2.01444e+007
2112.39	2.01221e+007
2114.32	2.01028e+007
2116.25	2.00893e+007
2118.18	2.0079e+007
2120.11	2.00658e+007
2122.04	2.00464e+007
2123.97	2.00235e+007
2125.89	2.00024e+007
2127.82	1.9986e+007
2129.75	1.99722e+007
2131.68	1.99568e+007
2133.61	1.99379e+007
2135.54	1.9917e+007
2137.47	1.98968e+007
2139.4	1.98785e+007
2141.33	1.98614e+007
2143.26	1.98448e+007
2145.19	1.98286e+007
2147.11	1.98127e+007
2149.04	1.97962e+007
2150.97	1.9779e+007
2152.9	1.97616e+007
2154.83	1.9744e+007
2156.76	1.97248e+007
2158.69	1.9703e+007
2160.62	1.96798e+007
2162.55	1.96579e+007
2164.48	1.96381e+007
2166.41	1.96186e+007
2168.33	1.95975e+007
2170.26	1.95752e+007
2172.19	1.95537e+007
2174.12	1.95349e+007
2176.05	1.95177e+007
2177.98	1.94992e+007
2179.91	1.94769e+007
2181.84	1.9452e+007
2183.77	1.94283e+007
2185.7	1.94081e+007
2187.63	1.93903e+007
2189.56	1.93719e+007
2191.48	1.93521e+007
2193.41	1.93319e+007
2195.34	1.9312e+007
2197.27	1.92913e+007
2199.2	1.92689e+007
2201.13	1.92454e+007
2203.06	1.92218e+007
2204.99	1.9199e+007
2206.92	1.91775e+007
2208.85	1.91576e+007
2210.78	1.91391e+007
2212.7	1.91208e+007
2214.63	1.91007e+007
2216.56	1.90781e+007
2218.49	1.90539e+007
2220.42	1.903e+007
2222.35	1.9007e+007
2224.28	1.89844e+007
2226.21	1.89617e+007
2228.14	1.89384e+007
2230.07	1.89134e+007
2232	1.88855e+007
2233.93	1.88547e+007
2235.85	1.8823e+007
2237.78	1.87929e+007
2239.71	1.87639e+007
2241.64	1.87334e+007
2243.57	1.86989e+007
2245.5	1.86609e+007
2247.43	1.86208e+007
2249.36	1.85792e+007
2251.29	1.85358e+007
2253.22	1.84906e+007
2255.15	1.84446e+007
2257.07	1.83977e+007
2259	1.83486e+007
2260.93	1.82977e+007
2262.86	1.82483e+007
2264.79	1.82033e+007
2266.72	1.81631e+007
2268.65	1.8127e+007
2270.58	1.8096e+007
2272.51	1.80709e+007
2274.44	1.80525e+007
2276.37	1.8045e+007
2278.29	1.80497e+007
2280.22	1.80487e+007
2282.15	1.80034e+007
2284.08	1.78905e+007
2286.01	1.77371e+007
2287.94	1.75991e+007
2289.87	1.74949e+007
2291.8	1.73819e+007
2293.73	1.72093e+007
2295.66	1.69746e+007
2297.59	1.67089e+007
2299.52	1.64237e+007
2301.44	1.60981e+007
2303.37	1.57102e+007
2305.3	1.52571e+007
2307.23	1.47506e+007
2309.16	1.42155e+007
2311.09	1.36841e+007
2313.02	1.31652e+007
2314.95	1.26234e+007
2316.88	1.20217e+007
2318.81	1.13863e+007
2320.74	1.07961e+007
2322.66	1.03022e+007
2324.59	9.88777e+006
2326.52	9.51434e+006
2328.45	9.17652e+006
2330.38	8.89808e+006
2332.31	8.69815e+006
2334.24	8.57017e+006
2336.17	8.47561e+006
2338.1	8.37516e+006
2340.03	8.31794e+006
2341.96	8.48271e+006
2343.89	9.01687e+006
2345.81	9.7666e+006
2347.74	1.02526e+007
2349.67	1.00433e+007
2351.6	9.16426e+006
2353.53	8.07075e+006
2355.46	7.22405e+006
2357.39	6.76596e+006
2359.32	6.59048e+006
2361.25	6.59549e+006
2363.18	6.77826e+006
2365.11	7.15718e+006
2367.03	7.71525e+006
2368.96	8.43237e+006
2370.89	9.31145e+006
2372.82	1.03508e+007
2374.75	1.15173e+007
2376.68	1.27505e+007
2378.61	1.39686e+007
2380.54	1.5068e+007
2382.47	1.59501e+007
2384.4	1.65682e+007
2386.33	1.69462e+007
2388.26	1.71492e+007
2390.18	1.72437e+007
2392.11	1.7281e+007
2394.04	1.72948e+007
2395.97	1.73005e+007
2397.9	1.72988e+007
2399.83	1.72882e+007
2401.76	1.72721e+007
2403.69	1.72567e+007
2405.62	1.72458e+007
2407.55	1.72398e+007
2409.48	1.72356e+007
2411.4	1.72271e+007
2413.33	1.72099e+007
2415.26	1.71869e+007
2417.19	1.71646e+007
2419.12	1.71457e+007
2421.05	1.71277e+007
2422.98	1.71082e+007
2424.91	1.70874e+007
2426.84	1.70663e+007
2428.77	1.70451e+007
2430.7	1.70247e+007
2432.62	1.70068e+007
2434.55	1.69911e+007
2436.48	1.6975e+007
2438.41	1.69571e+007
2440.34	1.69385e+007
2442.27	1.69214e+007
2444.2	1.69056e+007
2446.13	1.6889e+007
2448.06	1.68699e+007
2449.99	1.68485e+007
2451.92	1.68276e+007
2453.85	1.68093e+007
2455.77	1.67924e+007
2457.7	1.67733e+007
2459.63	1.675e+007
2461.56	1.67251e+007
2463.49	1.67039e+007
2465.42	1.66885e+007
2467.35	1.66758e+007
2469.28	1.666e+007
2471.21	1.66381e+007
2473.14	1.66123e+007
2475.07	1.65875e+007
2476.99	1.65665e+007
2478.92	1.65479e+007
2480.85	1.65288e+007
2482.78	1.65078e+007
2484.71	1.6486e+007
2486.64	1.6465e+007
2488.57	1.6445e+007
2490.5	1.64247e+007
2492.43	1.64024e+007
2494.36	1.63786e+007
2496.29	1.63555e+007
2498.22	1.63351e+007
2500.14	1.63163e+007
2502.07	1.62964e+007
2504	1.62747e+007
2505.93	1.62526e+007
2507.86	1.62314e+007
2509.79	1.62104e+007
2511.72	1.61892e+007
2513.65	1.61691e+007
2515.58	1.61504e+007
2517.51	1.61306e+007
2519.44	1.61077e+007
2521.36	1.60836e+007
2523.29	1.60621e+007
2525.22	1.60436e+007
2527.15	1.60247e+007
2529.08	1.60035e+007
2531.01	1.59813e+007
2532.94	1.59605e+007
2534.87	1.59405e+007
2536.8	1.59198e+007
2538.73	1.5899e+007
2540.66	1.58791e+007
2542.58	1.58594e+007
2544.51	1.58372e+007
2546.44	1.5812e+007
2548.37	1.57865e+007
2550.3	1.57641e+007
2552.23	1.57446e+007
2554.16	1.57249e+007
2556.09	1.57025e+007
2558.02	1.56774e+007
2559.95	1.56513e+007
2561.88	1.56261e+007
2563.81	1.56035e+007
2565.73	1.55843e+007
2567.66	1.55661e+007
2569.59	1.55448e+007
2571.52	1.55184e+007
2573.45	1.54903e+007
2575.38	1.54649e+007
2577.31	1.54425e+007
2579.24	1.54195e+007
2581.17	1.53949e+007
2583.1	1.53729e+007
2585.03	1.53571e+007
2586.95	1.53453e+007
2588.88	1.53307e+007
2590.81	1.53097e+007
2592.74	1.52843e+007
2594.67	1.52589e+007
2596.6	1.52353e+007
2598.53	1.52124e+007
2600.46	1.51886e+007
2602.39	1.51639e+007
2604.32	1.51393e+007
2606.25	1.51164e+007
2608.18	1.50959e+007
2610.1	1.50767e+007
2612.03	1.50558e+007
2613.96	1.50316e+007
2615.89	1.50051e+007
2617.82	1.49793e+007
2619.75	1.49558e+007
2621.68	1.49335e+007
2623.61	1.49102e+007
2625.54	1.48849e+007
2627.47	1.48582e+007
2629.4	1.48318e+007
2631.32	1.48079e+007
2633.25	1.47867e+007
2635.18	1.47656e+007
2637.11	1.47416e+007
2639.04	1.47158e+007
2640.97	1.46928e+007
2642.9	1.46748e+007
2644.83	1.46579e+007
2646.76	1.46372e+007
2648.69	1.46121e+007
2650.62	1.4586e+007
2652.54	1.45612e+007
2654.47	1.45373e+007
2656.4	1.45136e+007
2658.33	1.44913e+007
2660.26	1.44705e+007
2662.19	1.44493e+007
2664.12	1.44261e+007
2666.05	1.44014e+007
2667.98	1.43766e+007
2669.91	1.43527e+007
2671.84	1.43301e+007
2673.77	1.43092e+007
2675.69	1.42891e+007
2677.62	1.42664e+007
2679.55	1.42386e+007
2681.48	1.42083e+007
2683.41	1.41805e+007
2685.34	1.41573e+007
2687.27	1.41362e+007
2689.2	1.4114e+007
2691.13	1.40908e+007
2693.06	1.40681e+007
2694.99	1.40448e+007
2696.91	1.40187e+007
2698.84	1.39906e+007
2700.77	1.39647e+007
2702.7	1.39436e+007
2704.63	1.3925e+007
2706.56	1.39045e+007
2708.49	1.3881e+007
2710.42	1.38566e+007
2712.35	1.38329e+007
2714.28	1.38087e+007
2716.21	1.37829e+007
2718.14	1.37567e+007
2720.06	1.37325e+007
2721.99	1.37103e+007
2723.92	1.36885e+007
2725.85	1.36657e+007
2727.78	1.36419e+007
2729.71	1.36179e+007
2731.64	1.35941e+007
2733.57	1.35701e+007
2735.5	1.35447e+007
2737.43	1.3517e+007
2739.36	1.34877e+007
2741.28	1.34591e+007
2743.21	1.34332e+007
2745.14	1.34095e+007
2747.07	1.33865e+007
2749	1.33627e+007
2750.93	1.33381e+007
2752.86	1.33131e+007
2754.79	1.32889e+007
2756.72	1.32668e+007
2758.65	1.32462e+007
2760.58	1.32242e+007
2762.51	1.31976e+007
2764.43	1.31669e+007
2766.36	1.31368e+007
2768.29	1.31115e+007
2770.22	1.30904e+007
2772.15	1.30689e+007
2774.08	1.3044e+007
2776.01	1.30165e+007
2777.94	1.29895e+007
2779.87	1.29638e+007
2781.8	1.29375e+007
2783.73	1.29094e+007
2785.65	1.2881e+007
2787.58	1.28549e+007
2789.51	1.28315e+007
2791.44	1.28089e+007
2793.37	1.27848e+007
2795.3	1.27584e+007
2797.23	1.27295e+007
2799.16	1.26988e+007
2801.09	1.26675e+007
2803.02	1.26369e+007
2804.95	1.26072e+007
2806.87	1.25778e+007
2808.8	1.25491e+007
2810.73	1.25224e+007
2812.66	1.24972e+007
2814.59	1.2471e+007
2816.52	1.24413e+007
2818.45	1.24086e+007
2820.38	1.2376e+007
2822.31	1.23456e+007
2824.24	1.2317e+007
2826.17	1.22888e+007
2828.1	1.22597e+007
2830.02	1.22291e+007
2831.95	1.2197e+007
2833.88	1.21626e+007
2835.81	1.21246e+007
2837.74	1.20809e+007
2839.67	1.20293e+007
2841.6	1.19682e+007
2843.53	1.18981e+007
2845.46	1.18237e+007
2847.39	1.17547e+007
2849.32	1.17021e+007
2851.24	1.16711e+007
2853.17	1.16584e+007
2855.1	1.16563e+007
2857.03	1.16581e+007
2858.96	1.166e+007
2860.89	1.16588e+007
2862.82	1.16515e+007
2864.75	1.16367e+007
2866.68	1.16167e+007
2868.61	1.15945e+007
2870.54	1.15727e+007
2872.47	1.15521e+007
2874.39	1.15316e+007
2876.32	1.15087e+007
2878.25	1.1482e+007
2880.18	1.14537e+007
2882.11	1.1427e+007
2884.04	1.14009e+007
2885.97	1.13707e+007
2887.9	1.13339e+007
2889.83	1.12946e+007
2891.76	1.12575e+007
2893.69	1.12223e+007
2895.61	1.11853e+007
2897.54	1.11463e+007
2899.47	1.11081e+007
2901.4	1.10699e+007
2903.33	1.10261e+007
2905.26	1.09741e+007
2907.19	1.09165e+007
2909.12	1.0856e+007
2911.05	1.079e+007
2912.98	1.07166e+007
2914.91	1.0642e+007
2916.83	1.05762e+007
2918.76	1.05244e+007
2920.69	1.04855e+007
2922.62	1.0459e+007
2924.55	1.04468e+007
2926.48	1.04463e+007
2928.41	1.0448e+007
2930.34	1.04443e+007
2932.27	1.04382e+007
2934.2	1.04395e+007
2936.13	1.0452e+007
2938.06	1.04683e+007
2939.98	1.04775e+007
2941.91	1.04749e+007
2943.84	1.04634e+007
2945.77	1.04461e+007
2947.7	1.0423e+007
2949.63	1.03936e+007
2951.56	1.03598e+007
2953.49	1.03251e+007
2955.42	1.0292e+007
2957.35	1.02621e+007
2959.28	1.02369e+007
2961.2	1.02174e+007
2963.13	1.02027e+007
2965.06	1.0191e+007
2966.99	1.01811e+007
2968.92	1.01717e+007
2970.85	1.01602e+007
2972.78	1.0145e+007
2974.71	1.01274e+007
2976.64	1.011e+007
2978.57	1.00926e+007
2980.5	1.0071e+007
2982.43	1.00424e+007
2984.35	1.00077e+007
2986.28	9.96928e+006
2988.21	9.92967e+006
2990.14	9.89285e+006
2992.07	9.86435e+006
2994	9.84562e+006
2995.93	9.8293e+006
2997.86	9.8043e+006
2999.79	9.76721e+006
3001.72	9.72715e+006
3003.65	9.69721e+006
3005.57	9.68169e+006
3007.5	9.67271e+006
3009.43	9.65929e+006
3011.36	9.6376e+006
3013.29	9.61127e+006
3015.22	9.58418e+006
3017.15	9.5567e+006
3019.08	9.52905e+006
3021.01	9.50364e+006
3022.94	9.48131e+006
3024.87	9.45863e+006
3026.79	9.4326e+006
3028.72	9.4065e+006
3030.65	9.38694e+006
3032.58	9.37554e+006
3034.51	9.36614e+006
3036.44	9.34977e+006
3038.37	9.32062e+006
3040.3	9.27926e+006
3042.23	9.23272e+006
3044.16	9.18766e+006
3046.09	9.13888e+006
3048.02	9.06974e+006
3049.94	8.97396e+006
3051.87	8.87577e+006
3053.8	8.81507e+006
3055.73	8.80684e+006
3057.66	8.82388e+006
3059.59	8.82644e+006
3061.52	8.80153e+006
3063.45	8.76513e+006
3065.38	8.73394e+006
3067.31	8.70808e+006
3069.24	8.68026e+006
3071.16	8.6484e+006
3073.09	8.61421e+006
3075.02	8.57761e+006
3076.95	8.53884e+006
3078.88	8.50188e+006
3080.81	8.47061e+006
3082.74	8.44319e+006
3084.67	8.4138e+006
3086.6	8.37844e+006
3088.53	8.33705e+006
3090.46	8.29169e+006
3092.39	8.24521e+006
3094.31	8.20094e+006
3096.24	8.16113e+006
3098.17	8.12539e+006
3100.1	8.09171e+006
3102.03	8.05877e+006
3103.96	8.0267e+006
3105.89	7.99538e+006
3107.82	7.96261e+006
3109.75	7.92476e+006
3111.68	7.8801e+006
3113.61	7.8317e+006
3115.53	7.78561e+006
3117.46	7.745e+006
3119.39	7.70769e+006
3121.32	7.67034e+006
3123.25	7.63316e+006
3125.18	7.59765e+006
3127.11	7.56199e+006
3129.04	7.5229e+006
3130.97	7.48211e+006
3132.9	7.44603e+006
3134.83	7.41726e+006
3136.75	7.38996e+006
3138.68	7.35653e+006
3140.61	7.31598e+006
3142.54	7.2732e+006
3144.47	7.23214e+006
3146.4	7.19316e+006
3148.33	7.156e+006
3150.26	7.12107e+006
3152.19	7.08736e+006
3154.12	7.05216e+006
3156.05	7.0149e+006
3157.98	6.97978e+006
3159.9	6.95268e+006
3161.83	6.93535e+006
3163.76	6.92313e+006
3165.69	6.90885e+006
3167.62	6.8893e+006
3169.55	6.86834e+006
3171.48	6.85343e+006
3173.41	6.84906e+006
3175.34	6.85384e+006
3177.27	6.86327e+006
3179.2	6.87379e+006
3181.12	6.88333e+006
3183.05	6.89036e+006
3184.98	6.89441e+006
3186.91	6.89667e+006
3188.84	6.89762e+006
3190.77	6.89508e+006
3192.7	6.88711e+006
3194.63	6.87694e+006
3196.56	6.87158e+006
3198.49	6.87413e+006
3200.42	6.8798e+006
3202.35	6.88142e+006
3204.27	6.87723e+006
3206.2	6.87132e+006
3208.13	6.86796e+006
3210.06	6.86818e+006
3211.99	6.87116e+006
3213.92	6.87593e+006
3215.85	6.88059e+006
3217.78	6.88174e+006
3219.71	6.87602e+006
3221.64	6.8621e+006
3223.57	6.84113e+006
3225.49	6.81582e+006
3227.42	6.78896e+006
3229.35	6.76165e+006
3231.28	6.73253e+006
3233.21	6.69924e+006
3235.14	6.66038e+006
3237.07	6.61551e+006
3239	6.56462e+006
3240.93	6.50953e+006
3242.86	6.45547e+006
3244.79	6.40838e+006
3246.72	6.369e+006
3248.64	6.33134e+006
3250.57	6.28912e+006
3252.5	6.2428e+006
3254.43	6.19864e+006
3256.36	6.16109e+006
3258.29	6.12811e+006
3260.22	6.09439e+006
3262.15	6.05747e+006
3264.08	6.01926e+006
3266.01	5.98215e+006
3267.94	5.94598e+006
3269.86	5.90988e+006
3271.79	5.87598e+006
3273.72	5.8488e+006
3275.65	5.83063e+006
3277.58	5.81921e+006
3279.51	5.81116e+006
3281.44	5.80569e+006
3283.37	5.8028e+006
3285.3	5.80009e+006
3287.23	5.79473e+006
3289.16	5.78841e+006
3291.08	5.78617e+006
3293.01	5.78934e+006
3294.94	5.79342e+006
3296.87	5.79473e+006
3298.8	5.79582e+006
3300.73	5.801e+006
3302.66	5.80935e+006
3304.59	5.81696e+006
3306.52	5.82516e+006
3308.45	5.84172e+006
3310.38	5.87274e+006
3312.31	5.91685e+006
3314.23	5.96906e+006
3316.16	6.02723e+006
3318.09	6.09197e+006
3320.02	6.16248e+006
3321.95	6.23572e+006
3323.88	6.30963e+006
3325.81	6.38408e+006
3327.74	6.4581e+006
3329.67	6.52831e+006
3331.6	6.59169e+006
3333.53	6.64781e+006
3335.45	6.69576e+006
3337.38	6.72881e+006
3339.31	6.73506e+006
3341.24	6.70582e+006
3343.17	6.64378e+006
3345.1	6.56233e+006
3347.03	6.47732e+006
3348.96	6.39954e+006
3350.89	6.33321e+006
3352.82	6.27822e+006
3354.75	6.23223e+006
3356.68	6.19163e+006
3358.6	6.15196e+006
3360.53	6.10834e+006
3362.46	6.05646e+006
3364.39	5.99426e+006
3366.32	5.92305e+006
3368.25	5.84594e+006
3370.18	5.7655e+006
3372.11	5.68377e+006
3374.04	5.6047e+006
3375.97	5.53449e+006
3377.9	5.4781e+006
3379.82	5.43664e+006
3381.75	5.40926e+006
3383.68	5.3968e+006
3385.61	5.40203e+006
3387.54	5.42687e+006
3389.47	5.47113e+006
3391.4	5.53457e+006
3393.33	5.61855e+006
3395.26	5.72448e+006
3397.19	5.85046e+006
3399.12	5.98911e+006
3401.04	6.12874e+006
3402.97	6.25708e+006
3404.9	6.3662e+006
3406.83	6.45529e+006
3408.76	6.52791e+006
3410.69	6.58441e+006
3412.62	6.6165e+006
3414.55	6.61178e+006
3416.48	6.56626e+006
3418.41	6.49232e+006
3420.34	6.41177e+006
3422.27	6.34e+006
3424.19	6.27788e+006
3426.12	6.21861e+006
3428.05	6.15846e+006
3429.98	6.09838e+006
3431.91	6.03892e+006
3433.84	5.97963e+006
3435.77	5.92304e+006
3437.7	5.87354e+006
3439.63	5.83063e+006
3441.56	5.78847e+006
3443.49	5.74563e+006
3445.41	5.71033e+006
3447.34	5.6894e+006
3449.27	5.67441e+006
3451.2	5.6462e+006
3453.13	5.59437e+006
3455.06	5.52649e+006
3456.99	5.45632e+006
3458.92	5.38979e+006
3460.85	5.32678e+006
3462.78	5.27043e+006
3464.71	5.22564e+006
3466.64	5.18969e+006
3468.56	5.15225e+006
3470.49	5.10668e+006
3472.42	5.05587e+006
3474.35	5.00478e+006
3476.28	4.95266e+006
3478.21	4.89684e+006
3480.14	4.84061e+006
3482.07	4.79209e+006
3484	4.75527e+006
3485.93	4.72545e+006
3487.86	4.69425e+006
3489.78	4.65735e+006
3491.71	4.6168e+006
3493.64	4.57646e+006
3495.57	4.53612e+006
3497.5	4.49156e+006
3499.43	4.44143e+006
3501.36	4.39209e+006
3503.29	4.3524e+006
3505.22	4.32443e+006
3507.15	4.30292e+006
3509.08	4.28362e+006
3511	4.26697e+006
3512.93	4.25183e+006
3514.86	4.23116e+006
3516.79	4.19747e+006
3518.72	4.14977e+006
3520.65	4.09287e+006
3522.58	4.0347e+006
3524.51	3.98669e+006
3526.44	3.96015e+006
3528.37	3.95509e+006
3530.3	3.95655e+006
3532.23	3.94892e+006
3534.15	3.93095e+006
3536.08	3.90906e+006
3538.01	3.87983e+006
3539.94	3.83124e+006
3541.87	3.76377e+006
3543.8	3.69907e+006
3545.73	3.66037e+006
3547.66	3.64922e+006
3549.59	3.64758e+006
3551.52	3.63937e+006
3553.45	3.62365e+006
3555.37	3.60683e+006
3557.3	3.58543e+006
3559.23	3.53934e+006
3561.16	3.44823e+006
3563.09	3.32229e+006
3565.02	3.21427e+006
3566.95	3.18443e+006
3568.88	3.24136e+006
3570.81	3.32572e+006
3572.74	3.36695e+006
3574.67	3.35219e+006
3576.6	3.32264e+006
3578.52	3.30414e+006
3580.45	3.26785e+006
3582.38	3.17629e+006
3584.31	3.0496e+006
3586.24	2.95685e+006
3588.17	2.9406e+006
3590.1	2.97301e+006
3592.03	2.99519e+006
3593.96	2.9823e+006
3595.89	2.9562e+006
3597.82	2.94544e+006
3599.74	2.94946e+006
3601.67	2.94051e+006
3603.6	2.89154e+006
3605.53	2.80451e+006
3607.46	2.71663e+006
3609.39	2.67001e+006
3611.32	2.66558e+006
3613.25	2.6588e+006
3615.18	2.6176e+006
3617.11	2.57222e+006
3619.04	2.57674e+006
3620.97	2.62113e+006
3622.89	2.62099e+006
3624.82	2.52023e+006
3626.75	2.37868e+006
3628.68	2.31958e+006
3630.61	2.39415e+006
3632.54	2.53134e+006
3634.47	2.62814e+006
3636.4	2.65541e+006
3638.33	2.65065e+006
3640.26	2.63045e+006
3642.19	2.55642e+006
3644.11	2.40116e+006
3646.04	2.21794e+006
3647.97	2.11054e+006
3649.9	2.13218e+006
3651.83	2.23597e+006
3653.76	2.33455e+006
3655.69	2.39063e+006
3657.62	2.42962e+006
3659.55	2.47385e+006
3661.48	2.49577e+006
3663.41	2.44984e+006
3665.33	2.3325e+006
3667.26	2.18902e+006
3669.19	2.06651e+006
3671.12	1.98144e+006
3673.05	1.93689e+006
3674.98	1.94865e+006
3676.91	2.0305e+006
3678.84	2.15483e+006
3680.77	2.24811e+006
3682.7	2.24324e+006
3684.63	2.14028e+006
3686.56	2.01245e+006
3688.48	1.94898e+006
3690.41	1.98642e+006
3692.34	2.08501e+006
3694.27	2.16531e+006
3696.2	2.17372e+006
3698.13	2.12369e+006
3700.06	2.07436e+006
3701.99	2.06317e+006
3703.92	2.0637e+006
3705.85	2.02232e+006
3707.78	1.93457e+006
3709.7	1.86322e+006
3711.63	1.86871e+006
3713.56	1.93785e+006
3715.49	1.9995e+006
3717.42	2.00119e+006
3719.35	1.95185e+006
3721.28	1.89529e+006
3723.21	1.86345e+006
3725.14	1.85507e+006
3727.07	1.84083e+006
3729	1.78794e+006
3730.93	1.69838e+006
3732.85	1.62336e+006
3734.78	1.61657e+006
3736.71	1.66685e+006
3738.64	1.70125e+006
3740.57	1.66677e+006
3742.5	1.58638e+006
3744.43	1.51988e+006
3746.36	1.49524e+006
3748.29	1.50401e+006
3750.22	1.54151e+006
3752.15	1.61179e+006
3754.07	1.69719e+006
3756	1.76143e+006
3757.93	1.79191e+006
3759.86	1.81073e+006
3761.79	1.83307e+006
3763.72	1.84188e+006
3765.65	1.82169e+006
3767.58	1.79478e+006
3769.51	1.79744e+006
3771.44	1.83032e+006
3773.37	1.85692e+006
3775.29	1.85042e+006
3777.22	1.82241e+006
3779.15	1.80222e+006
3781.08	1.80438e+006
3783.01	1.82266e+006
3784.94	1.84392e+006
3786.87	1.85745e+006
3788.8	1.85573e+006
3790.73	1.83399e+006
3792.66	1.79051e+006
3794.59	1.72764e+006
3796.52	1.65565e+006
3798.44	1.59435e+006
3800.37	1.56282e+006
3802.3	1.56445e+006
3804.23	1.58848e+006
3806.16	1.62897e+006
3808.09	1.68989e+006
3810.02	1.75968e+006
3811.95	1.79082e+006
3813.88	1.73098e+006
3815.81	1.58632e+006
3817.74	1.43833e+006
3819.66	1.37783e+006
3821.59	1.42251e+006
3823.52	1.5104e+006
3825.45	1.57008e+006
3827.38	1.57954e+006
3829.31	1.55646e+006
3831.24	1.51742e+006
3833.17	1.46764e+006
3835.1	1.41883e+006
3837.03	1.39304e+006
3838.96	1.40527e+006
3840.89	1.45337e+006
3842.81	1.52053e+006
3844.74	1.57298e+006
3846.67	1.56332e+006
3848.6	1.46796e+006
3850.53	1.33324e+006
3852.46	1.25751e+006
3854.39	1.30052e+006
3856.32	1.41896e+006
3858.25	1.51195e+006
3860.18	1.5238e+006
3862.11	1.4815e+006
3864.03	1.43873e+006
3865.96	1.41577e+006
3867.89	1.40484e+006
3869.82	1.40584e+006
3871.75	1.4292e+006
3873.68	1.47018e+006
3875.61	1.50325e+006
3877.54	1.50775e+006
3879.47	1.4886e+006
3881.4	1.46742e+006
3883.33	1.45959e+006
3885.25	1.46439e+006
3887.18	1.47429e+006
3889.11	1.48725e+006
3891.04	1.5055e+006
3892.97	1.52247e+006
3894.9	1.51875e+006
3896.83	1.48032e+006
3898.76	1.4217e+006
3900.69	1.38203e+006
3902.62	1.39231e+006
3904.55	1.44872e+006
3906.48	1.51899e+006
3908.4	1.56931e+006
3910.33	1.58355e+006
3912.26	1.56608e+006
3914.19	1.53525e+006
3916.12	1.51161e+006
3918.05	1.5048e+006
3919.98	1.51018e+006
3921.91	1.51911e+006
3923.84	1.52793e+006
3925.77	1.5346e+006
3927.7	1.53427e+006
3929.62	1.52612e+006
3931.55	1.52016e+006
3933.48	1.52732e+006
3935.41	1.5437e+006
3937.34	1.55348e+006
3939.27	1.54822e+006
3941.2	1.53551e+006
3943.13	1.52696e+006
3945.06	1.52551e+006
3946.99	1.52803e+006
3948.92	1.53326e+006
3950.85	1.54126e+006
3952.77	1.54881e+006
3954.7	1.55157e+006
3956.63	1.54976e+006
3958.56	1.54791e+006
3960.49	1.54898e+006
3962.42	1.55182e+006
3964.35	1.55391e+006
3966.28	1.55401e+006
3968.21	1.55197e+006
3970.14	1.54815e+006
3972.07	1.54413e+006
3973.99	1.54229e+006
3975.92	1.54351e+006
3977.85	1.54581e+006
3979.78	1.54635e+006
3981.71	1.5444e+006
3983.64	1.54177e+006
3985.57	1.53995e+006
3987.5	1.5384e+006
3989.43	1.53626e+006
3991.36	1.53481e+006
3993.29	1.53618e+006
3995.22	1.53986e+006
3997.14	1.54247e+006
3999.07	1.54167e+006
4001	1.53884e+006
4002.93	1.53661e+006
4004.86	1.53553e+006
4006.79	1.53438e+006
4008.72	1.53262e+006
4010.65	1.5306e+006
4012.58	1.52833e+006
4014.51	1.52589e+006
4016.44	1.52474e+006
4018.36	1.52644e+006
4020.29	1.52968e+006
4022.22	1.53054e+006
4024.15	1.5272e+006
4026.08	1.52308e+006
4028.01	1.5236e+006
4029.94	1.52952e+006
4031.87	1.5353e+006
4033.8	1.53488e+006
4035.73	1.52841e+006
4037.66	1.52144e+006
4039.58	1.51796e+006
4041.51	1.5166e+006
4043.44	1.51472e+006
4045.37	1.51348e+006
4047.3	1.51579e+006
4049.23	1.5206e+006
4051.16	1.52274e+006
4053.09	1.51924e+006
4055.02	1.51285e+006
4056.95	1.50816e+006
4058.88	1.50632e+006
4060.81	1.50538e+006
4062.73	1.50398e+006
4064.66	1.5025e+006
4066.59	1.50149e+006
4068.52	1.5008e+006
4070.45	1.50037e+006
4072.38	1.50048e+006
4074.31	1.50133e+006
4076.24	1.50341e+006
4078.17	1.50764e+006
4080.1	1.51374e+006
4082.03	1.51887e+006
4083.95	1.51918e+006
4085.88	1.51327e+006
4087.81	1.50357e+006
4089.74	1.49429e+006
4091.67	1.48873e+006
4093.6	1.48789e+006
4095.53	1.49058e+006
4097.46	1.49415e+006
4099.39	1.49621e+006
4101.32	1.49616e+006
4103.25	1.49495e+006
4105.18	1.49349e+006
4107.1	1.49184e+006
4109.03	1.49019e+006
4110.96	1.48925e+006
4112.89	1.4891e+006
4114.82	1.4885e+006
4116.75	1.48638e+006
4118.68	1.48365e+006
4120.61	1.4824e+006
4122.54	1.48314e+006
4124.47	1.48399e+006
4126.4	1.48312e+006
4128.32	1.48124e+006
4130.25	1.4806e+006
4132.18	1.4822e+006
4134.11	1.48468e+006
4136.04	1.48591e+006
4137.97	1.48475e+006
4139.9	1.4811e+006
4141.83	1.47561e+006
4143.76	1.46987e+006
4145.69	1.4661e+006
4147.62	1.4653e+006
4149.54	1.46589e+006
4151.47	1.46541e+006
4153.4	1.46356e+006
4155.33	1.46241e+006
4157.26	1.4632e+006
4159.19	1.46441e+006
4161.12	1.46391e+006
4163.05	1.46223e+006
4164.98	1.46188e+006
4166.91	1.46393e+006
4168.84	1.46659e+006
4170.77	1.46759e+006
4172.69	1.46659e+006
4174.62	1.4646e+006
4176.55	1.46238e+006
4178.48	1.46034e+006
4180.41	1.45918e+006
4182.34	1.4593e+006
4184.27	1.45985e+006
4186.2	1.45938e+006
4188.13	1.45732e+006
4190.06	1.45431e+006
4191.99	1.45114e+006
4193.91	1.44821e+006
4195.84	1.44571e+006
4197.77	1.44384e+006
4199.7	1.44288e+006
4201.63	1.44323e+006
4203.56	1.44481e+006
4205.49	1.44631e+006
4207.42	1.44581e+006
4209.35	1.44285e+006
4211.28	1.43905e+006
4213.21	1.4361e+006
4215.14	1.43404e+006
4217.06	1.43244e+006
4218.99	1.43183e+006
4220.92	1.43228e+006
4222.85	1.43167e+006
4224.78	1.42813e+006
4226.71	1.42366e+006
4228.64	1.42283e+006
4230.57	1.42707e+006
4232.5	1.43254e+006
4234.43	1.43453e+006
4236.36	1.43211e+006
4238.28	1.42763e+006
4240.21	1.42365e+006
4242.14	1.4217e+006
4244.07	1.42219e+006
4246	1.42366e+006
4247.93	1.42318e+006
4249.86	1.41925e+006
4251.79	1.41359e+006
4253.72	1.40888e+006
4255.65	1.40562e+006
4257.58	1.40256e+006
4259.5	1.39931e+006
4261.43	1.39687e+006
4263.36	1.39602e+006
4265.29	1.39652e+006
4267.22	1.39782e+006
4269.15	1.399e+006
4271.08	1.39886e+006
4273.01	1.39723e+006
4274.94	1.3956e+006
4276.87	1.39493e+006
4278.8	1.3936e+006
4280.73	1.38959e+006
4282.65	1.38435e+006
4284.58	1.3822e+006
4286.51	1.38541e+006
4288.44	1.39182e+006
4290.37	1.39781e+006
4292.3	1.40148e+006
4294.23	1.40217e+006
4296.16	1.39917e+006
4298.09	1.39297e+006
4300.02	1.38643e+006
4301.95	1.38269e+006
4303.87	1.38221e+006
4305.8	1.38293e+006
4307.73	1.38284e+006
4309.66	1.38137e+006
4311.59	1.37867e+006
4313.52	1.37504e+006
4315.45	1.37115e+006
4317.38	1.36773e+006
4319.31	1.36504e+006
4321.24	1.36317e+006
4323.17	1.36238e+006
4325.1	1.36247e+006
4327.02	1.362e+006
4328.95	1.35962e+006
4330.88	1.3561e+006
4332.81	1.35385e+006
4334.74	1.35392e+006
4336.67	1.3544e+006
4338.6	1.35265e+006
4340.53	1.34887e+006
4342.46	1.34639e+006
4344.39	1.34809e+006
4346.32	1.35276e+006
4348.24	1.35564e+006
4350.17	1.35293e+006
4352.1	1.34555e+006
4354.03	1.33815e+006
4355.96	1.33431e+006
4357.89	1.33346e+006
4359.82	1.33253e+006
4361.75	1.32993e+006
4363.68	1.32702e+006
4365.61	1.32621e+006
4367.54	1.32835e+006
4369.46	1.33189e+006
4371.39	1.33403e+006
4373.32	1.33249e+006
4375.25	1.327e+006
4377.18	1.31976e+006
4379.11	1.31426e+006
4381.04	1.31283e+006
4382.97	1.31484e+006
4384.9	1.31737e+006
4386.83	1.31777e+006
4388.76	1.31567e+006
4390.69	1.31215e+006
4392.61	1.3078e+006
4394.54	1.30295e+006
4396.47	1.2997e+006
4398.4	1.30138e+006
4400.33	1.30813e+006
4402.26	1.31468e+006
4404.19	1.31527e+006
4406.12	1.3104e+006
4408.05	1.30607e+006
4409.98	1.30596e+006
4411.91	1.30723e+006
4413.83	1.30523e+006
4415.76	1.29965e+006
4417.69	1.29371e+006
4419.62	1.28935e+006
4421.55	1.2861e+006
4423.48	1.2839e+006
4425.41	1.28386e+006
4427.34	1.28569e+006
4429.27	1.28665e+006
4431.2	1.28426e+006
4433.13	1.27912e+006
4435.06	1.27433e+006
4436.98	1.27242e+006
4438.91	1.27336e+006
4440.84	1.27498e+006
4442.77	1.27522e+006
4444.7	1.27374e+006
4446.63	1.27134e+006
4448.56	1.26812e+006
4450.49	1.26382e+006
4452.42	1.26019e+006
4454.35	1.26083e+006
4456.28	1.26673e+006
4458.2	1.27315e+006
4460.13	1.27346e+006
4462.06	1.26621e+006
4463.99	1.25638e+006
4465.92	1.2494e+006
4467.85	1.24609e+006
4469.78	1.24433e+006
4471.71	1.24324e+006
4473.64	1.24366e+006
4475.57	1.24535e+006
4477.5	1.24606e+006
4479.43	1.24388e+006
4481.35	1.23933e+006
4483.28	1.23439e+006
4485.21	1.23043e+006
4487.14	1.22773e+006
4489.07	1.22626e+006
4491	1.22569e+006
4492.93	1.22478e+006
4494.86	1.22196e+006
4496.79	1.2174e+006
4498.72	1.21361e+006
4500.65	1.21301e+006
4502.57	1.21517e+006
4504.5	1.21729e+006
4506.43	1.21723e+006
4508.36	1.21504e+006
4510.29	1.21201e+006
4512.22	1.20947e+006
4514.15	1.20849e+006
4516.08	1.20923e+006
4518.01	1.20981e+006
4519.94	1.20734e+006
4521.87	1.20088e+006
4523.79	1.19282e+006
4525.72	1.18676e+006
4527.65	1.18474e+006
4529.58	1.18643e+006
4531.51	1.1896e+006
4533.44	1.19095e+006
4535.37	1.18847e+006
4537.3	1.18402e+006
4539.23	1.18215e+006
4541.16	1.18454e+006
4543.09	1.18726e+006
4545.02	1.18532e+006
4546.94	1.17901e+006
4548.87	1.17356e+006
4550.8	1.17276e+006
4552.73	1.17525e+006
4554.66	1.17713e+006
4556.59	1.17624e+006
4558.52	1.17298e+006
4560.45	1.16843e+006
4562.38	1.16304e+006
4564.31	1.15735e+006
4566.24	1.15306e+006
4568.16	1.15245e+006
4570.09	1.15542e+006
4572.02	1.15739e+006
4573.95	1.15268e+006
4575.88	1.14153e+006
4577.81	1.13187e+006
4579.74	1.13149e+006
4581.67	1.13891e+006
4583.6	1.14495e+006
4585.53	1.14321e+006
4587.46	1.13621e+006
4589.39	1.13046e+006
4591.31	1.1286e+006
4593.24	1.12831e+006
4595.17	1.12693e+006
4597.1	1.1248e+006
4599.03	1.1244e+006
4600.96	1.12768e+006
4602.89	1.13384e+006
4604.82	1.13897e+006
4606.75	1.13849e+006
4608.68	1.13129e+006
4610.61	1.12101e+006
4612.53	1.1126e+006
4614.46	1.10823e+006
4616.39	1.10708e+006
4618.32	1.10771e+006
4620.25	1.10926e+006
4622.18	1.11125e+006
4624.11	1.11372e+006
4626.04	1.11705e+006
4627.97	1.12034e+006
4629.9	1.12061e+006
4631.83	1.11592e+006
4633.75	1.10903e+006
4635.68	1.1054e+006
4637.61	1.10677e+006
4639.54	1.10871e+006
4641.47	1.10612e+006
4643.4	1.09961e+006
4645.33	1.09448e+006
4647.26	1.09391e+006
4649.19	1.09549e+006
4651.12	1.09487e+006
4653.05	1.09102e+006
4654.98	1.08662e+006
4656.9	1.08393e+006
4658.83	1.08208e+006
4660.76	1.07912e+006
4662.69	1.07534e+006
4664.62	1.073e+006
4666.55	1.07297e+006
4668.48	1.07338e+006
4670.41	1.07224e+006
4672.34	1.07008e+006
4674.27	1.06851e+006
4676.2	1.06737e+006
4678.12	1.06511e+006
4680.05	1.06151e+006
4681.98	1.0578e+006
4683.91	1.05427e+006
4685.84	1.05019e+006
4687.77	1.04671e+006
4689.7	1.04678e+006
4691.63	1.05059e+006
4693.56	1.05328e+006
4695.49	1.05e+006
4697.42	1.04189e+006
4699.35	1.03443e+006
4701.27	1.03078e+006
4703.2	1.02946e+006
4705.13	1.02832e+006
4707.06	1.0274e+006
4708.99	1.02737e+006
4710.92	1.02778e+006
4712.85	1.02827e+006
4714.78	1.02931e+006
4716.71	1.03053e+006
4718.64	1.02995e+006
4720.57	1.02648e+006
4722.49	1.0218e+006
4724.42	1.01845e+006
4726.35	1.01718e+006
4728.28	1.0174e+006
4730.21	1.01861e+006
4732.14	1.01989e+006
4734.07	1.01921e+006
4736	1.01528e+006
4737.93	1.0094e+006
4739.86	1.00392e+006
4741.79	999754
4743.71	996817
4745.64	995836
4747.57	997220
4749.5	998911
4751.43	998175
4753.36	995579
4755.29	994384
4757.22	995379
4759.15	995189
4761.08	991147
4763.01	985272
4764.94	981128
4766.86	978635
4768.79	974929
4770.72	969530
4772.65	965385
4774.58	964222
4776.51	963579
4778.44	960096
4780.37	954084
4782.3	948878
4784.23	946391
4786.16	945315
4788.08	943830
4790.01	942280
4791.94	942157
4793.87	943517
4795.8	944714
4797.73	944435
4799.66	942957
4801.59	941358
4803.52	940328
4805.45	939887
4807.38	939533
4809.31	938407
4811.23	936023
4813.16	933160
4815.09	931350
4817.02	931053
4818.95	930883
4820.88	929119
4822.81	925495
4824.74	921162
4826.67	917542
4828.6	915659
4830.53	915707
4832.45	916383
4834.38	915419
4836.31	911967
4838.24	908120
4840.17	906904
4842.1	908917
4844.03	911955
4845.96	913689
4847.89	913447
4849.82	911497
4851.75	908130
4853.68	903924
4855.6	899712
4857.53	895789
4859.46	892070
4861.39	889248
4863.32	888467
4865.25	889379
4867.18	889968
4869.11	889055
4871.04	887494
4872.97	885884
4874.9	882831
4876.82	877297
4878.75	871374
4880.68	868341
4882.61	868493
4884.54	869230
4886.47	869111
4888.4	869280
4890.33	870323
4892.26	870289
4894.19	867306
4896.12	862458
4898.04	858421
4899.97	856352
4901.9	855548
4903.83	855154
4905.76	854640
4907.69	853384
4909.62	851472
4911.55	850381
4913.48	851075
4915.41	851805
4917.34	849848
4919.27	845657
4921.19	843080
4923.12	844469
4925.05	847283
4926.98	847021
4928.91	842404
4930.84	836121
4932.77	831202
4934.7	828465
4936.63	827360
4938.56	827370
4940.49	827822
4942.41	827627
4944.34	826344
4946.27	824903
4948.2	824346
4950.13	824238
4952.06	823245
4953.99	821148
4955.92	819284
4957.85	818738
4959.78	818862
4961.71	818140
4963.64	816105
4965.56	813744
4967.49	812053
4969.42	810715
4971.35	808602
4973.28	805519
4975.21	803009
4977.14	802839
4979.07	804601
4981	805512
4982.93	803279
4984.86	798758
4986.78	794825
4988.71	792782
4990.64	791192
4992.57	788580
4994.5	785826
4996.43	784717
4998.36	785224
