
Integration time [ms]: 500.000
Averaging Nr. [scans]: 10
Smoothing Nr. [pixels]: 0
Data measured with spectrometer [name]: 1901096U1
Wave   ;Sample   ;Dark     ;Reference;Scope Corrected for Dark
[nm]   ;[counts] ;[counts] ;[counts] 

 155.82;  217.568;  220.336;   69.357;-2.76810
 156.42;  245.975;  239.240;   98.706; 6.73520
 157.03;  233.976;  223.041;   92.018;10.93544
 157.63;  207.474;  212.140;   78.786;-4.66525
 158.23;  241.274;  215.440;   94.680;25.83462
 158.84;  246.579;  233.042;  119.574;13.53669
 159.44;  229.073;  229.939;   82.550;-0.86605
 160.04;  252.771;  233.638;  102.110;19.13307
 160.64;  293.672;  291.439;   93.044; 2.23382
 161.25;  264.976;  242.041;  112.923;22.93556
 161.85;  272.974;  250.139;  109.378;22.83456
 162.45;  235.271;  214.738;   90.607;20.53301
 163.06;  266.572;  268.439;   94.943;-1.86620
 163.66;  260.077;  254.041;   96.745; 6.03606
 164.26;  230.166;  228.235;   70.019; 1.93106
 164.86;  227.168;  223.836;  112.245; 3.33163
 165.47;  240.812;  222.006;  144.771;18.80580
 166.07;  242.909;  227.405;  171.417;15.50461
 166.67;  236.808;  221.004;  157.886;15.80394
 167.27;  248.110;  227.505;  165.443;20.60519
 167.88;  253.808;  243.204;  176.084;10.60390
 168.48;  286.004;  270.602;  149.416;15.40240
 169.08;  270.407;  255.003;  149.165;15.40347
 169.68;  262.714;  266.507;  196.226;-3.79299
 170.29;  282.304;  279.502;  174.114; 2.80236
 170.89;  260.007;  246.104;  182.177;13.90373
 171.49;  286.407;  267.103;  158.870;19.30359
 172.09;  254.708;  243.304;  197.793;11.40410
 172.70;  264.101;  241.700;  178.950;22.40095
 173.30;  334.804;  312.302;  192.313;22.50232
 173.90;  216.998;  227.899;  149.290;-10.90038
 174.50;  353.401;  342.200;  169.250;11.20095
 175.11;  313.903;  290.801;  178.397;23.10197
 175.71;  225.110;  202.005;  163.326;23.10482
 176.31;  217.509;  201.904;  157.407;15.60441
 176.91;  249.202;  218.401;  166.476;30.80152
 177.51;  230.801;  227.000;  169.037; 3.80066
 178.12;  307.702;  302.301;  189.172; 5.40142
 178.72;  291.906;  269.103;  188.859;22.80334
 179.32;  287.103;  283.101;  182.185; 4.00171
 179.92;  238.203;  227.101;  182.480;11.10160
 180.52;  351.210;  333.605;  194.824;17.60478
 181.13;  273.998;  252.699;  169.191;21.29964
 181.73;  237.305;  213.902;  204.825;23.40259
 182.33;  260.598;  243.799;  191.492;16.79966
 182.93;  250.600;  233.800;  210.121;16.80032
 183.54;  197.395;  182.997;  146.515;14.39798
 184.14;  229.505;  204.202;  159.832;25.30275
 184.74;  304.605;  274.302;  211.228;30.30267
 185.34;  244.910;  224.105;  232.734;20.80500
 185.94;  275.599;  259.299;  205.003;16.29991
 186.54;  229.906;  238.903;  234.146;-8.99694
 187.15;  210.402;  203.901;  218.473; 6.50144
 187.75;  334.812;  294.206;  238.667;40.60572
 188.35;  298.999;  278.399;  236.604;20.59993
 188.95;  208.608;  208.004;  223.885; 0.60392
 189.55;  196.401;  171.400;  204.335;25.00062
 190.16;  270.801;  253.900;  250.453;16.90101
 190.76;  207.398;  196.298;  231.976;11.09931
 191.36;  271.099;  260.299;  258.608;10.80003
 191.96;  232.805;  216.002;  282.334;16.80279
 192.56;  224.199;  216.599;  277.413; 7.60013
 193.16;  245.397;  222.298;  299.568;23.09915
 193.77;  286.793;  280.796;  305.671; 5.99700
 194.37;  210.003;  198.501;  293.691;11.50185
 194.97;  198.799;  197.299;  303.214; 1.50015
 195.57;  206.908;  200.904;  323.385; 6.00392
 196.17;  252.092;  239.195;  329.855;12.89665
 196.77;  201.400;  201.800;  362.624;-0.39962
 197.38;  219.799;  209.299;  385.309;10.50005
 197.98;  284.895;  255.797;  391.422;29.09813
 198.58;  237.005;  235.002;  441.930; 2.00271
 199.18;  209.404;  185.202;  429.902;24.20210
 199.78;  298.393;  269.496;  456.870;28.89698
 200.38;  233.401;  239.300;  499.846;-5.89915
 200.98;  180.703;  178.001;  502.986; 2.70175
 201.59;  239.416;  215.408;  611.653;24.00762
 202.19;  208.911;  224.805;  605.646;-15.89475
 202.79;  215.101;  197.500;  587.448;17.60091
 203.39;  194.303;  161.601;  644.186;32.70173
 203.99;  241.906;  222.003;  740.949;19.90312
 204.59;  227.804;  222.002;  733.510; 5.80226
 205.19;  222.298;  216.999;  796.291; 5.29964
 205.79;  218.105;  207.602;  825.824;10.50257
 206.40;  202.603;  198.301;  875.395; 4.30193
 207.00;  232.306;  228.303;  907.041; 4.00296
 207.60;  213.703;  190.601;  928.798;23.10199
 208.20;  196.511;  203.105; 1019.353;-6.59459
 208.80;  193.012;  193.206; 1029.973;-0.19416
 209.40;  213.217;  199.209; 1141.880;14.00822
 210.00;  202.304;  202.402; 1124.417;-0.09758
 210.60;  206.607;  201.703; 1170.175; 4.90369
 211.20;  284.306;  273.303; 1254.557;11.00330
 211.81;  168.306;  153.303; 1237.652;15.00318
 212.41;  193.914;  190.407; 1355.714; 3.50674
 213.01;  204.819;  189.210; 1400.416;15.60899
 213.61;  197.309;  172.005; 1399.523;25.30476
 214.21;  187.612;  181.706; 1517.477; 5.90594
 214.81;  201.115;  185.208; 1599.136;15.90723
 215.41;  227.012;  224.406; 1677.966; 2.60570
 216.01;  243.311;  255.406; 1747.260;-12.09442
 216.61;  217.799;  220.499; 1794.906;-2.70001
 217.21;  209.517;  218.909; 1900.484;-9.39170
 217.81;  174.620;  167.410; 1966.536; 7.20944
 218.41;  190.116;  187.108; 2070.058; 3.00773
 219.02;  184.720;  188.510; 2134.247;-3.79033
 219.62;  231.913;  209.407; 2229.697;22.50637
 220.22;  216.913;  200.407; 2296.000;16.50646
 220.82;  195.517;  178.909; 2396.090;16.60842
 221.42;  206.619;  197.310; 2534.516; 9.30899
 222.02;  185.017;  170.809; 2602.876;14.20811
 222.62;  161.216;  160.508; 2644.667; 0.70793
 223.22;  187.316;  179.408; 2747.058; 7.90773
 223.82;  185.516;  180.408; 2851.961; 5.10779
 224.42;  231.015;  216.608; 2979.536;14.40723
 225.02;  209.316;  189.208; 3070.857;20.10770
 225.62;  191.423;  170.212; 3154.212;21.21110
 226.22;  195.219;  190.210; 3251.918; 5.00904
 226.82;  201.717;  178.409; 3374.683;23.30828
 227.42;  206.610;  191.205; 3459.925;15.40480
 228.02;  189.411;  208.305; 3557.146;-18.89473
 228.62;  160.019;  137.910; 3720.333;22.10936
 229.22;  256.821;  235.611; 3822.360;21.20998
 229.82;  189.604;  177.202; 3910.707;12.40220
 230.43;  194.018;  202.209; 4060.498;-8.19139
 231.03;  205.411;  170.305; 4165.853;35.10541
 231.63;  186.810;  166.305; 4299.932;20.50494
 232.23;  189.113;  184.506; 4439.690; 4.60623
 232.83;  186.814;  186.107; 4570.914; 0.70674
 233.43;  212.115;  198.208; 4679.232;13.90715
 234.03;  193.315;  174.508; 4822.739;18.80730
 234.63;  157.619;  146.210; 4963.625;11.40920
 235.23;  196.418;  189.309; 5087.302; 7.10869
 235.83;  181.212;  175.706; 5158.578; 5.50597
 236.43;  194.007;  189.403; 5238.061; 4.60339
 237.03;  198.412;  175.506; 5367.267;22.90572
 237.63;  280.313;  255.007; 5476.106;25.30658
 238.23;  192.718;  178.109; 5557.100;14.60865
 238.83;  168.618;  163.509; 5587.205; 5.10875
 239.43;  191.710;  173.305; 5669.235;18.40502
 240.03;  192.517;  188.909; 5684.486; 3.60834
 240.63;  177.123;  169.912; 5805.009; 7.21104
 241.23;  219.513;  210.407; 5803.599; 9.10642
 241.83;  195.417;  170.609; 5757.283;24.80828
 242.43;  197.514;  188.907; 5830.420; 8.60689
 243.03;  173.718;  175.209; 5665.396;-1.49146
 243.63;  181.515;  161.208; 5769.037;20.30725
 244.23;  171.509;  154.805; 5796.819;16.70468
 244.83;  154.916;  150.808; 5806.754; 4.10764
 245.43;  202.209;  189.204; 5823.208;13.00441
 246.02;  369.113;  345.506; 5800.188;23.60619
 246.62;  189.209;  176.605; 5811.522;12.60474
 247.22;  156.519;  152.710; 5818.533; 3.80936
 247.82;  214.318;  205.209; 5941.708; 9.10883
 248.42;  295.814;  264.607; 5924.620;31.20689
 249.02;  211.216;  199.908; 5931.763;11.30783
 249.62;  179.321;  169.111; 5978.860;10.20998
 250.22;  237.119;  228.510; 6035.626; 8.60922
 250.82;  221.615;  196.608; 6063.934;25.00719
 251.42;  202.022;  197.211; 6166.982; 4.81045
 252.02;  165.315;  148.708; 6146.432;16.60715
 252.62;  181.325;  173.413; 6316.257; 7.91211
 253.22;  230.313;  225.507; 6362.600; 4.80644
 253.82;  143.620;  144.310; 6451.444;-0.69039
 254.42;  176.917;  168.609; 6595.581; 8.30822
 255.02;  202.621;  184.211; 6709.758;18.40992
 255.62;  160.720;  144.710; 6866.335;16.00942
 256.22;  301.313;  273.107; 6997.500;28.20646
 256.82;  174.012;  163.506; 7151.784;10.50609
 257.41;  162.921;  158.811; 7263.866; 4.11010
 258.01;  166.916;  153.908; 7368.656;13.00768
 258.61;  216.819;  207.910; 7537.434; 8.90938
 259.21;  162.714;  158.207; 7585.914; 4.50674
 259.81;  223.013;  197.507; 7627.906;25.50658
 260.41;  304.414;  275.007; 7729.113;29.40674
 261.01;  138.723;  136.212; 7804.604; 2.51094
 261.61;  185.722;  159.711; 7874.186;26.01053
 262.21;  167.611;  159.106; 7809.864; 8.50566
 262.81;  148.713;  140.007; 7883.093; 8.70629
 263.41;  180.421;  151.011; 7851.264;29.41006
 264.00;  401.923;  360.812; 7910.396;41.11078
 264.60;  198.419;  178.010; 7832.833;20.40938
 265.20;  159.918;  141.709; 7811.800;18.20865
 265.80;  169.217;  170.309; 7807.390;-1.09158
 266.40;  195.612;  171.206; 7758.985;24.40613
 267.00;  222.417;  211.909; 7744.586;10.50834
 267.60;  187.520;  181.510; 7713.844; 6.00961
 268.20;  208.620;  192.610; 7658.534;16.00940
 268.80;  140.619;  134.910; 7613.828; 5.70926
 269.39;  224.308;  199.004; 7639.694;25.30412
 269.99;  162.315;  151.208; 7545.848;11.10750
 270.59;  183.317;  168.409; 7557.185;14.90832
 271.19;  179.715;  153.308; 7463.747;26.40748
 271.79;  195.914;  175.907; 7430.716;20.00680
 272.39;  176.114;  163.307; 7390.417;12.80682
 272.99;  172.808;  150.304; 7366.798;22.50420
 273.59;  154.107;  146.003; 7394.867; 8.10353
 274.18;  180.710;  171.305; 7372.027; 9.40484
 274.78;  181.806;  165.703; 7463.749;16.10312
 275.38;  402.097;  361.998; 7541.064;40.09907
 275.98;  163.292;  158.695; 7555.049; 4.59653
 276.58;  177.388;  172.593; 7679.967; 4.79473
 277.18;  155.193;  140.996; 7761.887;14.19737
 277.78;  184.184;  168.891; 7885.197;15.29317
 278.37;  145.576;  144.387; 8094.415; 1.18916
 278.97;  175.182;  161.590; 8236.837;13.59186
 279.57;  168.870;  162.284; 8401.201; 6.58666
 280.17;  157.369;  139.283; 8585.075;18.08609
 280.77;  174.765;  170.081; 8739.990; 4.68423
 281.37;  186.264;  178.680; 8921.174; 7.58386
 281.96;  178.850;  174.472; 9108.466; 4.37708
 282.56;  196.455;  173.175; 9270.274;23.27948
 283.16;  185.547;  179.071; 9355.810; 6.47585
 283.76;  147.747;  139.371; 9505.805; 8.37575
 284.36;  304.240;  274.567; 9628.166;29.67268
 284.95;  158.428;  159.561; 9802.511;-1.13293
 285.55;  194.235;  171.965; 9973.057;22.27029
 286.15;  176.940;  174.867;10153.664; 2.07264
 286.75;  215.026;  205.160;10252.877; 9.86634
 287.35;  165.030;  142.062;10345.749;22.96791
 287.94;  127.634;  117.664;10437.340; 9.96992
 288.54;  156.432;  144.863;10563.308;11.56920
 289.14;  147.232;  139.663;10625.296; 7.56896
 289.74;  151.234;  148.364;10698.339; 2.86990
 290.34;  155.146;  159.671;10794.693;-4.52451
 290.93;  149.142;  143.468;10889.406; 5.67358
 291.53;  150.045;  151.470;10882.075;-1.42490
 292.13;  142.443;  135.669;10986.727; 6.77401
 292.73;  192.137;  170.066;10956.902;22.07129
 293.33;  143.847;  120.771;10919.612;23.07592
 293.92;  149.850;  140.573;10969.773; 9.27725
 294.52;  129.653;  127.074;10992.032; 2.57856
 295.12;  160.750;  145.273;10934.672;15.47723
 295.72;  148.949;  125.172;10815.554;23.77682
 296.31;  204.957;  188.876;10904.618;16.08044
 296.91;  210.946;  192.771;10752.392;18.17544
 297.51;  173.854;  161.875;10565.563;11.97923
 298.11;  366.555;  338.175;10514.872;28.37942
 298.70;  146.349;  142.872;10425.745; 3.47663
 299.30;  126.529;  120.561;10340.539; 5.96769
 299.90;  171.822;  166.258;10399.297; 5.56457
 300.50;  211.434;  191.364;10320.936;20.06982
 301.09;  143.733;  125.663;10404.916;18.06939
 301.69;  157.441;  145.168;10530.383;12.27305
 302.29;  149.834;  130.664;10625.238;19.16988
 302.89;  135.837;  132.366;10712.996; 3.47115
 303.48;  199.531;  196.462;10883.577; 3.06853
 304.08;  159.146;  143.871;11034.496;15.27555
 304.68;  173.038;  148.966;11199.933;24.07194
 305.28;  163.339;  157.467;11331.138; 5.87207
 305.87;  133.847;  121.071;11557.216;12.77600
 306.47;  138.442;  118.968;11629.007;19.47358
 307.07;  179.049;  157.372;11817.946;21.67665
 307.67;  182.955;  156.475;12043.183;26.47966
 308.26;  162.549;  143.772;12135.263;18.77702
 308.86;  177.335;  167.665;12308.970; 9.67057
 309.46;  158.549;  137.072;12516.957;21.47690
 310.05;  144.240;  141.167;12737.271; 3.07278
 310.65;  170.559;  158.578;12857.363;11.98144
 311.25;  181.046;  160.371;12935.298;20.67559
 311.85;  172.441;  156.568;13145.596;15.87334
 312.44;  176.542;  149.168;13347.612;27.37370
 313.04;  153.947;  136.371;13485.708;17.57581
 313.64;  160.541;  149.968;13620.981;10.57303
 314.23;  176.445;  160.970;13715.076;15.47512
 314.83;  437.443;  384.969;13936.025;52.47399
 315.43;  163.236;  127.165;13967.090;36.07102
 316.02;  186.553;  176.974;14040.930; 9.57849
 316.62;  163.345;  147.370;14125.363;15.97483
 317.22;  188.748;  160.472;14245.032;28.27635
 317.81;  148.249;  137.272;14233.762;10.97700
 318.41;  153.051;  144.273;14263.897; 8.77778
 319.01;  146.342;  140.268;14427.401; 6.07346
 319.60;  180.444;  175.869;14388.747; 4.57448
 320.20;  134.946;  124.570;14258.389;10.37538
 320.80;  152.943;  149.269;14334.539; 3.67430
 321.39;  161.544;  149.269;14417.251;12.27456
 321.99;  152.543;  145.369;14396.221; 7.17389
 322.59;  205.050;  198.472;14327.565; 6.57708
 323.18;  159.348;  138.872;14288.034;20.47639
 323.78;  178.452;  156.574;14312.623;21.87835
 324.38;  142.745;  136.770;14236.162; 5.97481
 324.97;  153.251;  131.673;14253.394;21.57770
 325.57;  165.244;  153.870;14167.559;11.37473
 326.17;  190.554;  164.075;14160.352;26.47897
 326.76;  178.547;  151.871;14123.806;26.67577
 327.36;  196.349;  170.672;14073.860;25.67696
 327.95;  152.352;  126.274;13930.123;26.07835
 328.55;  133.552;  132.874;13852.519; 0.67825
 329.15;  382.742;  326.868;13731.407;55.87360
 329.74;  146.559;  131.678;13598.370;14.88159
 330.34;  158.155;  151.176;13577.890; 6.97980
 330.94;  178.739;  163.167;13380.550;15.57233
 331.53;  160.942;  144.968;13220.110;15.97366
 332.13;  140.452;  114.274;13089.027;26.17843
 332.72;  285.852;  237.274;12940.220;48.57827
 333.32;  159.157;  140.176;12869.816;18.98040
 333.92;  137.860;  123.678;12706.579;14.18179
 334.51;  149.358;  121.477;12609.342;27.88095
 335.11;  180.856;  147.876;12467.899;32.98003
 335.70;  150.562;  132.879;12368.236;17.68304
 336.30;  191.474;  174.086;12332.478;17.38834
 336.90;  183.964;  153.880;12252.377;30.08394
 337.49;  149.563;  121.780;12294.456;27.78347
 338.09;  182.764;  150.080;12364.864;32.68365
 338.68;  205.075;  159.586;12237.490;45.48863
 339.28;  187.873;  133.585;12302.356;54.28789
 339.88;  191.777;  153.887;12390.342;37.88975
 340.47;  216.775;  177.686;12416.990;39.08863
 341.07;  206.074;  169.486;12531.981;36.58844
 341.66;  154.878;  109.888;12623.655;44.99006
 342.26;  209.273;  132.885;12797.052;76.38779
 342.85;  203.475;  148.086;12937.109;55.38906
 343.45;  187.085;  127.392;12984.911;59.69348
 344.05;  255.067;  157.382;13082.432;97.68513
 344.64;  263.244;  156.969;13194.041;106.27434
 345.24;  236.499;  119.945;13265.813;116.55391
 345.83;  313.871;  163.730;13312.418;150.14083
 346.43;  308.192;  115.042;13468.470;193.15076
 347.02;  392.798;  183.844;13572.576;208.95311
 347.62;  326.707;   84.249;13379.367;242.45731
 348.21;  419.100;  151.546;13533.522;267.55414
 348.81;  532.501;  181.646;13381.845;350.85461
 349.41;  575.909;  148.051;13369.417;427.85841
 350.00;  616.506;  126.049;13470.448;490.45690
 350.60;  688.404;  126.948;13588.306;561.45596
 351.19;  801.102;  152.847;13759.078;648.25534
 351.79;  931.907;  173.150;13840.276;758.75751
 352.38; 1014.909;  111.051;13938.916;903.85839
 352.98; 1181.391;  141.641;13979.839;1039.75008
 353.57; 1286.079;  135.134;14008.884;1150.94447
 354.17; 1398.982;  100.336;14067.448;1298.64589
 354.76; 1608.269;  155.229;14095.882;1453.04003
 355.36; 1699.254;  135.021;14156.360;1564.23295
 355.95; 1767.534;   93.010;14214.335;1674.52359
 356.55; 1903.716;  103.101;14229.371;1800.61559
 357.14; 2038.297;  121.490;14325.365;1916.80665
 357.74; 2098.882;  132.882;14177.550;1965.99971
 358.33; 2181.556;  137.768;14059.315;2043.78796
 358.93; 2194.126;  136.352;13923.782;2057.77402
 359.52; 2182.810;  114.643;13798.344;2068.16657
 360.12; 2212.088;  116.631;13719.972;2095.45619
 360.71; 2165.787;  136.431;13707.554;2029.35578
 361.31; 2176.078;  157.026;13621.268;2019.05168
 361.90; 2285.667;  322.920;13507.738;1962.74665
 362.50; 2044.755;  143.914;13484.098;1900.84135
 363.09; 1995.559;  124.816;13341.582;1870.74321
 363.69; 1951.876;  123.025;13261.120;1828.85064
 364.28; 1920.597;  131.937;13269.773;1788.66063
 364.88; 2002.406;  189.041;13351.165;1813.36485
 365.47; 1950.726;  148.852;13342.885;1801.87408
 366.06; 1904.944;  123.162;13257.149;1781.78210
 366.66; 1897.252;  131.966;13117.317;1765.28579
 367.25; 1916.356;  149.468;13006.099;1766.88759
 367.85; 1911.966;  118.174;12998.112;1793.79230
 368.44; 1979.051;  195.066;12809.111;1783.98566
 369.04; 1884.437;  138.258;12658.104;1746.17891
 369.63; 1902.528;  155.053;12538.629;1747.47504
 370.23; 1857.918;  130.248;12507.819;1727.67043
 370.82; 1809.204;  127.040;12275.616;1682.16376
 371.41; 1724.512;  118.644;12167.683;1605.86742
 372.01; 1686.309;  140.643;12115.712;1545.66587
 372.60; 1598.615;  117.146;11975.456;1481.46904
 373.20; 1572.430;  174.654;12039.964;1397.77582
 373.79; 1459.343;  147.261;11941.740;1312.08190
 374.39; 1365.537;  135.358;11902.018;1230.17920
 374.98; 1267.237;  140.058;11792.806;1127.17893
 375.57; 1209.432;  132.655;11721.304;1076.77670
 376.17; 1137.125;  148.552;11796.660;988.57352
 376.76; 1035.232;  126.855;11721.704;908.37670
 377.36;  971.233;  108.556;11727.335;862.67737
 377.95;  901.637;  123.558;11721.412;778.07907
 378.55;  840.837;  127.358;11711.712;713.47907
 379.14;  768.347;  124.964;11709.428;643.38382
 379.73;  743.625;  107.651;11636.354;635.97338
 380.33;  702.632;  127.356;11703.912;575.27688
 380.92;  672.429;  140.554;11668.144;531.87537
 381.51;  631.640;  150.860;11686.070;480.78036
 382.11;  548.539;  107.159;11643.046;441.37983
 382.70;  553.830;  150.654;11603.363;403.17580
 383.30;  502.734;  131.356;11590.348;371.37766
 383.89;  485.228;  148.153;11709.427;337.07500
 384.48;  450.027;  116.153;11665.995;333.87430
 385.08;  441.230;  135.354;11854.352;305.87555
 385.67;  380.633;  111.656;11824.527;268.97721
 386.27;  389.934;  119.756;11982.236;270.17741
 386.86;  380.827;  118.553;12038.498;262.27436
 387.45;  363.132;  105.955;12123.205;257.17672
 388.05;  383.236;  157.557;12277.087;225.67852
 388.64;  356.939;  161.559;12483.044;195.37979
 389.23;  334.036;  148.357;12506.880;185.67838
 389.83;  297.430;  119.954;12733.854;177.47559
 390.42;  330.031;  151.455;13005.489;178.57637
 391.01;  290.944;  118.762;13122.046;172.18202
 391.61;  259.030;  112.254;13136.770;146.77594
 392.20;  274.329;  129.354;13389.848;144.97547
 392.79;  254.232;  110.456;13482.314;143.77692
 393.39;  293.029;  176.754;13714.141;116.27531
 393.98;  226.735;   96.957;13887.473;129.77821
 394.57;  275.021;  144.349;14119.877;130.67170
 395.17;  282.537;  181.358;14342.017;101.17917
 395.76;  267.026;  157.252;14398.170;109.77375
 396.35;  237.735;  121.657;14723.368;116.07811
 396.95;  254.934;  153.556;14851.736;101.37741
 397.54;  235.835;  129.257;15011.260;106.57793
 398.13;  327.938;  210.558;15237.327;117.37940
 398.73;  240.437;  137.058;15364.602;103.37885
 399.32;  227.526;  116.952;15491.473;110.57381
 399.91;  197.834;  120.357;15600.753;77.47778
 400.50;  220.931;  142.255;15697.381;78.67619
 401.10;  229.139;  151.159;15828.054;77.97999
 401.69;  197.535;  127.157;15854.460;70.37793
 402.28;  198.135;  132.357;15897.175;65.77825
 402.88;  223.635;  140.157;15970.475;83.47825
 403.47;  218.936;  117.857;16008.786;101.07850
 404.06;  229.934;  152.956;16056.750;76.97770
 404.66;  201.435;  146.857;16006.671;54.57817
 405.25;  216.327;  155.853;16161.003;60.47447
 405.84;  188.741;  134.860;16197.799;53.88100
 406.43;  166.437;  110.258;16343.805;56.17891
 407.03;  223.239;  159.759;16413.145;63.47979
 407.62;  173.422;  114.250;16282.092;59.17203
 408.21;  269.736;  202.758;16281.894;66.97866
 408.80;  161.131;  111.055;16313.383;50.07623
 409.40;  182.939;  111.459;16243.061;71.48014
 409.99;  211.035;  148.957;16360.174;62.07823
 410.58;  156.444;   97.362;16266.062;59.08237
 411.17;  179.042;  109.861;16281.023;69.18153
 411.77;  199.534;  151.656;16300.337;47.87741
 412.36;  168.338;  108.458;16211.225;59.87936
 412.95;  171.544;  117.362;16312.261;54.18235
 413.54;  167.147;  127.563;16200.710;39.58343
 414.14;  207.045;  135.163;16218.084;71.88286
 414.73;  142.740;   94.360;15995.170;48.38034
 415.32;  164.645;  111.262;16069.668;53.38251
 415.91;  155.952;  109.366;15987.828;46.58603
 416.50;  146.049;   95.064;15943.356;50.98446
 417.10;  161.644;  111.162;15912.947;50.48206
 417.69;  231.447;  183.263;15903.020;48.18364
 418.28;  191.247;  141.563;15902.022;49.68370
 418.87;  176.452;  148.466;15922.014;27.98570
 419.47;  182.848;  126.764;15950.140;56.08409
 420.06;  211.959;  168.670;15879.978;43.28933
 420.65;  194.548;  155.164;15894.348;39.38425
 421.24;  175.958;  120.869;15789.352;55.08875
 421.83;  147.557;  107.869;15610.418;39.68802
 422.43;  151.955;  123.968;15405.994;27.98749
 423.02;  185.549;  152.165;15476.169;33.38472
 423.61;  213.767;  162.074;15425.441;51.69293
 424.20;  160.763;  134.772;15117.051;25.99092
 424.79;  190.168;  145.875;15050.664;44.29342
 425.38;  164.361;  120.671;14884.408;43.69000
 425.98;  142.960;  106.470;14787.487;36.48953
 426.57;  234.070;  185.876;14780.592;48.19404
 427.16;  234.172;  196.677;14687.646;37.49524
 427.75;  137.266;  113.374;14634.427;23.89260
 428.34;  142.771;  105.476;14516.915;37.29455
 428.93;  183.181;  143.182;14525.937;39.99942
 429.53;  186.789;  147.486;14399.900;39.30302
 430.12;  155.680;  111.081;14222.417;44.59899
 430.71;  131.177;  102.079;14024.941;29.09733
 431.30;  219.269;  177.075;14018.987;42.19393
 431.89;  187.879;  139.481;13882.793;48.39846
 432.48;  196.688;  167.685;13707.379;29.00255
 433.08;  173.981;  125.282;13447.029;48.69926
 433.67;  154.786;  134.684;13403.231;20.10151
 434.26;  174.589;  132.886;13265.896;41.70292
 434.85;  187.092;  150.987;13088.457;36.10427
 435.44;  177.697;  135.390;12961.570;42.30677
 436.03;  190.900;  156.292;12988.141;34.60830
 436.62;  300.289;  249.186;12866.499;51.10300
 437.21;  173.300;  142.792;12843.026;30.50800
 437.81;  203.102;  161.293;12774.470;41.80896
 438.40;  195.496;  162.390;12805.753;33.10638
 438.99;  195.306;  144.495;12760.762;50.81098
 439.58;  135.003;  124.993;12757.487;10.00935
 440.17;  150.706;  132.595;12745.864;18.11103
 440.76;  184.003;  158.293;12749.184;25.70927
 441.35;  147.009;  113.797;12701.024;33.21236
 441.94;  178.902;  149.493;12804.873;29.40902
 442.53;  138.003;   95.694;12713.802;42.30965
 443.12;  178.609;  145.797;12880.022;32.81232
 443.72;  135.312;  105.499;12883.889;29.81377
 444.31;  138.619;  119.602;12914.632;19.01692
 444.90;  207.310;  177.597;13017.940;29.71270
 445.49;  139.213;  114.599;12977.005;24.61412
 446.08;  169.811;  132.398;13065.358;37.41311
 446.67;  169.408;  141.996;13047.204;27.41191
 447.26;  135.833;  108.810;13128.922;27.02331
 447.85;  136.421;  103.903;13136.170;32.51776
 448.44;  135.829;   96.507;13156.836;39.32140
 449.03;  130.416;  105.201;13212.075;25.21567
 449.62;  132.710;   98.197;13212.835;34.51258
 450.21;  167.129;  142.608;13232.144;24.52159
 450.80;  162.921;  132.803;13210.071;30.11778
 451.39;  128.322;  102.204;13280.288;26.11817
 451.98;  137.333;  116.710;13361.025;20.62339
 452.57;  143.230;  123.308;13352.967;19.92210
 453.17;  127.924;  103.805;13390.926;24.11899
 453.76;  130.237;   98.212;13449.411;32.02527
 454.35;  143.132;  119.209;13449.195;23.92271
 454.94;  122.934;  113.110;13547.948; 9.82388
 455.53;  140.733;   98.810;13647.621;41.92329
 456.12;  144.539;  110.013;13639.739;34.52589
 456.71;  159.145;  143.616;13729.472;15.52879
 457.30;  133.745;  109.316;13869.368;24.42873
 457.89;  131.642;  122.815;13859.720; 8.82767
 458.48;  121.441;   86.714;13992.283;34.72685
 459.07;  141.948;  133.618;14014.042; 8.33035
 459.66;  116.044;   94.616;14017.355;21.42845
 460.25;  110.345;   91.816;14043.774;18.52885
 460.84;  153.546;  115.516;14122.487;38.02914
 461.43;  117.547;   92.917;14239.908;24.62961
 462.02;  160.545;  135.216;14250.976;25.32890
 462.61;  102.849;   90.918;14354.648;11.93049
 463.20;  132.052;  108.920;14434.730;23.13229
 463.79;  161.050;  127.419;14540.469;33.63094
 464.38;  107.348;   82.818;14582.535;24.53021
 464.97;  141.750;   96.319;14564.374;45.43105
 465.56;  107.251;   86.920;14552.106;20.33176
 466.15;  107.968;   89.628;14775.149;18.33932
 466.74;  150.467;  115.128;14771.829;35.33886
 467.32;  104.457;   63.923;14624.322;40.53432
 467.91;  150.959;  112.124;14685.370;38.83536
 468.50;  101.859;   76.624;14662.474;25.23545
 469.09;  129.765;  101.027;14603.087;28.73794
 469.68;  186.757;  168.922;14576.221;17.83428
 470.27;  155.168;  125.529;14710.860;29.63956
 470.86;  126.074;   94.832;14779.790;31.24241
 471.45;  112.269;   98.329;14796.673;13.93983
 472.04;  105.769;   75.729;14893.567;30.03970
 472.63;  245.372;  199.831;14949.444;45.54140
 473.22;  137.481;  104.735;15081.421;32.74529
 473.81;  111.180;   83.335;15204.309;27.84503
 474.40;  156.277;  139.133;15323.040;17.14351
 474.99;  129.979;  108.034;15371.985;21.94451
 475.58;  169.875;  144.432;15472.797;25.44255
 476.17;   86.487;   77.639;15381.247; 8.84806
 476.76;   91.884;   72.837;15500.493;19.04689
 477.34;  126.285;  108.738;15690.220;17.54746
 477.93;  107.881;   82.435;15655.120;25.44527
 478.52;  109.586;   77.138;15804.937;32.44783
 479.11;   88.985;   67.038;15723.306;21.94716
 479.70;  190.084;  150.437;15824.401;39.64705
 480.29;   70.783;   35.837;15854.772;34.94642
 480.88;  125.778;   83.734;15970.172;42.04421
 481.47;  138.985;   93.738;16240.510;45.24724
 482.06;   97.684;   82.137;16277.097;15.54695
 482.64;   92.178;   76.234;16369.672;15.94421
 483.23;   93.478;   66.934;16600.365;26.54404
 483.82;   95.282;   65.236;16701.951;30.04595
 484.41;  103.888;   83.640;16720.385;20.24892
 485.00;   84.790;   68.640;16684.320;16.14969
 485.59;   98.083;   84.837;16757.570;13.24638
 486.18;  109.784;   67.837;16565.195;41.94691
 486.77;  115.587;   99.239;16641.256;16.34828
 487.35;  128.492;   97.942;16516.766;30.55068
 487.94;  123.897;  103.544;16342.365;20.35287
 488.53;  156.883;  120.337;16328.276;36.54650
 489.12;   96.185;   78.338;16137.914;17.84734
 489.71;   98.294;   73.043;16040.510;25.25164
 490.30;  112.384;   75.137;15823.296;37.24693
 490.89;   95.794;   77.243;15770.310;18.55164
 491.47;  186.089;  141.540;15636.203;44.54930
 492.06;  156.096;  121.544;15767.440;34.55231
 492.65;   96.585;   73.638;15651.517;22.94740
 493.24;  120.790;   85.340;15745.321;35.44969
 493.83;   99.993;   73.942;15737.289;26.05119
 494.42;   71.285;   53.138;15680.605;18.14716
 495.00;  117.904;   93.948;15772.610;23.95606
 495.59;  120.998;  101.745;15555.489;19.25340
 496.18;   93.491;   75.841;15587.835;17.65000
 496.77;   72.800;   55.746;15499.329;17.05428
 497.36;  142.295;  108.643;15408.615;33.65176
 497.94;  145.293;  116.542;15405.174;28.75086
 498.53;   98.806;   70.649;15336.545;28.15682
 499.12;   86.510;   49.051;15247.135;37.45880
 499.71;  127.593;   84.842;15223.276;42.75092
 500.30;  110.997;   74.944;15162.171;36.05299
 500.88;  129.911;   97.752;15165.755;32.15923
 501.47;   92.507;   77.949;15064.069;14.55735
 502.06;  109.908;   85.650;15084.289;24.25780
 502.65;  106.606;   71.749;15053.546;34.85684
 503.23;   87.300;   67.646;14986.635;19.65440
 503.82;  104.607;   67.349;15037.966;37.25729
 504.41;   79.613;   53.153;14906.905;26.46036
 505.00;  192.908;  155.250;14855.493;37.65788
 505.58;  126.404;   96.648;14830.521;29.75628
 506.17;  148.912;  114.252;14742.188;34.65997
 506.76;  123.903;   81.647;14670.589;42.25559
 507.35;  143.912;   99.352;14583.180;44.55978
 507.93;  119.717;   76.655;14526.590;43.06222
 508.52;   98.015;   63.054;14549.052;34.96138
 509.11;  124.408;   70.950;14402.097;53.45796
 509.70;  118.914;   60.253;14285.923;58.66075
 510.28;  129.714;   96.753;14326.917;32.96060
 510.87;  124.418;   68.556;14263.308;55.86261
 511.46;  114.017;   63.355;14128.893;50.66228
 512.05;  138.410;   53.451;14064.229;84.95868
 512.63;  154.926;   85.560;14044.876;69.36631
 513.22;  136.819;   60.356;13960.816;76.46279
 513.81;  150.033;   74.763;13930.912;75.26930
 514.40;  150.728;   56.561;13850.705;94.16695
 514.98;  178.928;   91.761;13811.717;87.16722
 515.57;  191.118;   98.256;13759.513;92.86271
 516.16;  331.822;  194.558;13665.995;137.26453
 516.74;  172.722;   61.158;13650.798;111.56460
 517.33;  234.617;   93.655;13631.582;140.96204
 517.92;  234.024;   77.059;13572.029;156.96527
 518.50;  195.431;   50.163;13526.084;145.26869
 519.09;  252.123;   76.358;13522.206;175.76476
 519.68;  251.026;   63.860;13582.164;187.16605
 520.26;  263.726;   61.960;13514.477;201.76631
 520.85;  302.825;   67.859;13509.653;234.96580
 521.44;  332.723;   83.258;13416.109;249.46484
 522.02;  309.921;   48.057;13449.657;261.86369
 522.61;  364.833;   54.064;13481.719;310.76945
 523.20;  417.725;  102.759;13529.651;314.96576
 523.78;  359.626;   36.860;13421.774;322.76627
 524.37;  449.527;   81.160;13489.089;368.36660
 524.96;  472.731;   53.963;13546.479;418.76859
 525.54;  515.131;   79.662;13559.268;435.46832
 526.13;  565.429;   86.061;13613.739;479.36771
 526.72;  575.027;   36.160;13636.987;538.86656
 527.30;  648.438;   79.866;13736.029;568.57188
 527.89;  683.536;   87.665;13772.479;595.87076
 528.48;  735.931;   67.963;13717.585;667.96871
 529.06;  804.935;   96.665;13839.567;708.27051
 529.65;  864.240;   87.867;13879.060;776.37256
 530.23;  919.346;   90.871;13985.299;828.47561
 530.82;  991.232;   92.763;14006.492;898.46887
 531.41; 1043.134;   82.864;13952.847;960.27006
 531.99; 1165.936;  128.365;14189.484;1037.57090
 532.58; 1172.041;   53.068;14202.188;1118.97317
 533.17; 1612.142;  372.868;14394.606;1239.27358
 533.75; 1340.737;   82.365;14400.594;1258.37110
 534.34; 1370.337;   46.266;14487.405;1324.07135
 534.92; 1553.038;  109.366;14675.321;1443.67170
 535.51; 1592.039;   65.267;14802.540;1526.77211
 536.10; 1689.636;   73.565;14892.283;1616.07086
 536.68; 1776.134;   46.464;14930.339;1729.66990
 537.27; 1867.943;   71.169;15110.231;1796.77413
 537.85; 1970.637;   79.266;15302.512;1891.37149
 538.44; 2057.945;   64.070;15447.575;1993.87510
 539.02; 2127.338;   44.966;15526.634;2082.37198
 539.61; 2278.140;   51.267;15661.866;2226.87270
 540.20; 2401.345;   99.270;15878.364;2302.07485
 540.78; 2470.942;   90.468;16158.702;2380.47348
 541.37; 2577.750;   64.073;16286.580;2513.67741
 541.95; 2715.348;  101.471;16484.824;2613.87618
 542.54; 2797.949;   80.672;16728.355;2717.27686
 543.12; 2961.441;  103.568;16867.094;2857.87332
 543.71; 3028.944;   90.769;17189.740;2938.17432
 544.29; 3112.541;   73.468;17314.779;3039.07297
 544.88; 3224.040;   92.767;17689.258;3131.27252
 545.47; 3246.439;   40.767;17727.537;3205.67207
 546.05; 3343.047;   89.871;17966.822;3253.17612
 546.64; 3637.842;  236.468;18134.611;3401.37370
 547.22; 3534.150;   67.473;18293.980;3466.67741
 547.81; 3649.552;  109.374;18506.514;3540.17813
 548.39; 3642.147;   68.371;18651.521;3573.77610
 548.98; 3761.546;   82.770;18741.889;3678.77538
 549.56; 3794.748;   80.571;18939.928;3714.17624
 550.15; 3799.946;   49.370;19057.387;3750.57536
 550.73; 3859.257;   61.976;19266.816;3797.28040
 551.32; 3882.455;   69.075;19436.779;3813.37960
 551.90; 3898.646;   60.871;19450.693;3837.77549
 552.49; 3965.354;   87.875;19831.463;3877.47921
 553.07; 3997.248;  100.672;19986.041;3896.57653
 553.66; 4021.450;   84.973;20108.471;3936.47720
 554.24; 4060.857;  179.276;20174.721;3881.58050
 554.83; 4000.852;   81.874;20293.715;3918.97815
 555.41; 3973.453;   74.874;20431.230;3898.57851
 556.00; 3984.752;   89.774;20531.824;3894.97837
 556.58; 3965.060;   77.378;20630.889;3887.68199
 557.17; 3945.459;   79.077;20893.254;3866.38124
 557.75; 3886.264;   62.280;21027.377;3823.98392
 558.33; 3908.957;   57.876;21327.117;3851.08042
 558.92; 3864.564;   69.480;21511.662;3795.08361
 559.50; 3828.458;   57.177;21679.539;3771.28091
 560.09; 3827.759;   52.377;21966.859;3775.38134
 560.67; 3828.559;   92.177;22094.262;3736.38140
 561.26; 4049.357;  273.977;22325.426;3775.38060
 561.84; 3734.060;   96.578;22537.285;3637.48191
 562.43; 3664.666;   69.881;22665.506;3594.78455
 563.01; 3636.456;   68.476;22804.908;3567.98021
 563.60; 3550.358;   63.477;22987.145;3486.88101
 564.18; 3460.557;   18.377;22954.326;3442.18062
 564.76; 3491.560;   96.978;23225.584;3394.58189
 565.35; 3346.562;   19.179;23472.633;3327.38296
 565.93; 3369.862;   84.879;23797.533;3284.98296
 566.52; 3336.660;   57.978;24374.377;3278.68173
 567.10; 3271.165;   42.481;24673.195;3228.68433
 567.68; 3178.656;   45.276;25084.010;3133.38023
 568.27; 3106.261;   22.979;25516.410;3083.28247
 568.85; 3180.163;  107.380;26141.744;3072.78320
 569.44; 3055.665;   44.781;26641.191;3010.88427
 570.02; 2956.261;    5.678;27187.600;2950.58224
 570.60; 2985.765;   76.581;27742.281;2909.18404
 571.19; 2937.961;   64.579;28157.010;2873.38245
 571.77; 2914.358;   90.277;28428.947;2824.08107
 572.36; 2773.857;   14.977;28979.928;2758.88064
 572.94; 2756.463;   57.780;29391.047;2698.68326
 573.52; 2683.064;   21.580;29856.078;2661.48394
 574.11; 2621.765;   31.081;30210.297;2590.68437
 574.69; 2621.559;   39.278;30610.469;2582.28156
 575.27; 2575.761;   33.378;31068.201;2542.38226
 575.86; 2500.163;   44.780;31324.652;2455.38339
 576.44; 2459.765;   41.781;31821.682;2417.98402
 577.03; 2436.755;   38.175;32242.576;2398.57952
 577.61; 2410.156;   28.576;32332.604;2381.58013
 578.19; 2336.863;   27.179;32663.738;2309.68310
 578.78; 2316.962;   28.379;33150.430;2288.58287
 579.36; 2255.568;   21.282;33498.246;2234.28550
 579.94; 2278.255;   54.176;33838.488;2224.07978
 580.53; 2223.266;   50.281;33925.402;2172.98449
 581.11; 2191.863;   60.479;33902.137;2131.38308
 581.69; 2181.861;   82.579;33934.109;2099.28245
 582.28; 2101.462;   40.579;34024.719;2060.88269
 582.86; 2056.664;   29.580;34404.578;2027.08392
 583.44; 2046.663;   65.680;34290.453;1980.98339
 584.02; 2015.760;   43.078;34502.574;1972.68171
 584.61; 1995.358;   67.677;34367.449;1927.68114
 585.19; 1986.567;   72.082;34147.840;1914.48533
 585.77; 1962.963;   69.280;34324.949;1893.68328
 586.36; 1920.755;   34.775;34220.977;1885.97952
 586.94; 1875.368;   45.182;34264.648;1830.18550
 587.52; 1813.957;   16.577;34169.328;1797.38064
 588.11; 1794.164;   53.080;34027.176;1741.08394
 588.69; 1848.257;   76.376;34133.223;1771.88054
 589.27; 1741.665;   27.181;34017.098;1714.48435
 589.85; 1686.463;   34.080;34200.453;1652.38337
 590.44; 1712.865;   21.681;34417.695;1691.18437
 591.02; 1673.164;   37.680;34525.262;1635.48359
 591.60; 1646.657;   32.876;34488.723;1613.78054
 592.18; 1631.864;   49.980;34247.359;1581.88357
 592.77; 1580.653;   48.875;34253.250;1531.77890
 593.35; 1541.368;   16.382;34408.547;1524.98543
 593.93; 1502.167;    4.282;34700.426;1497.88504
 594.51; 1474.661;   28.279;34792.813;1446.38255
 595.10; 1429.261;  -19.621;35006.313;1448.88251
 595.68; 1449.666;   37.981;35184.211;1411.68466
 596.26; 1384.262;    5.179;35202.832;1379.08292
 596.84; 1355.559;  -11.623;35400.758;1367.18128
 597.43; 1378.958;   44.577;35554.852;1334.38116
 598.01; 1325.957;    5.076;35705.520;1320.88044
 598.59; 1320.066;    6.281;35872.508;1313.78466
 599.17; 1279.857;   16.776;35825.816;1263.08044
 599.76; 1255.262;   -1.421;35690.133;1256.68300
 600.34; 1211.253;   -2.426;35831.438;1213.67864
 600.92; 1228.059;   36.577;35801.262;1191.48136
 601.50; 1173.352;   -4.726;35980.527;1178.07845
 602.08; 1216.956;   74.876;35747.195;1142.07991
 602.67; 1187.954;   59.875;35853.664;1128.07927
 603.25; 1123.864;    6.580;35959.473;1117.28380
 603.83; 1117.164;   11.180;35792.375;1105.98388
 604.41; 1051.861;   -2.522;35914.496;1054.38218
 604.99; 1108.657;   47.377;36049.531;1061.28077
 605.58; 1037.152;    9.674;35814.113;1027.47811
 606.16; 1030.957;   14.777;35771.234;1016.18077
 606.74; 1001.755;   29.775;35656.973;971.97948
 607.32;  966.265;   15.481;35315.395;950.78431
 607.90; 1022.358;   76.477;35155.938;945.88089
 608.48;  921.363;   21.180;34978.152;900.18339
 609.07;  949.267;   53.182;34852.227;896.08504
 609.65; 1003.956;  109.676;34810.895;894.27993
 610.23;  875.557;   24.477;34730.625;851.08060
 610.81;  807.760;   -8.022;34496.090;815.78199
 611.39;  790.957;  -18.224;34449.219;809.18048
 611.97;  834.355;   23.876;34513.590;810.47982
 612.55;  800.165;   29.181;34686.289;770.98421
 613.14;  771.460;   -9.422;34700.883;780.88185
 613.72;  706.653;  -38.326;34388.938;744.97868
 614.30;  741.556;   -8.624;34659.613;750.18030
 614.88;  724.157;    2.576;34379.121;721.58050
 615.46;  699.159;    2.977;34221.359;696.18136
 616.04;  713.151;   25.773;33908.996;687.37774
 616.62;  697.653;   33.174;33753.336;664.47866
 617.20;  614.154;  -34.725;33597.859;648.87915
 617.79;  694.655;   50.475;33727.773;644.17944
 618.37;  610.664;  -18.220;33152.965;628.88365
 618.95;  632.556;   19.576;33161.605;612.98015
 619.53;  537.956;  -23.724;32939.707;561.68019
 620.11;  559.757;   -4.123;33004.430;563.88068
 620.69;  540.654;   -2.425;32959.859;543.07911
 621.27;  562.260;   33.878;32839.289;528.38204
 621.85;  527.257;   15.776;32868.613;511.48034
 622.43;  508.054;  -10.725;32800.363;518.77921
 623.01;  445.258;  -52.623;32647.637;497.88083
 623.59;  452.949;  -42.528;32613.248;495.47671
 624.17;  455.462;    6.579;32739.422;448.88273
 624.76;  437.652;  -11.726;32559.518;449.37821
 625.34;  435.260;  -10.722;32568.980;445.98181
 625.92;  430.360;   -0.122;32468.295;430.48212
 626.50;  387.159;  -31.322;32290.064;418.48144
 627.08;  421.063;   -6.320;32135.045;427.38322
 627.66;  397.561;    1.679;32275.604;395.88230
 628.24;  400.350;  -12.027;31949.385;412.37749
 628.82;  382.252;  -12.326;31947.217;394.57819
 629.40;  361.357;  -19.124;31771.922;380.48050
 629.98;  318.453;  -37.626;31671.943;356.07878
 630.56;  326.749;  -18.428;31838.951;345.17675
 631.14;  321.658;  -47.123;31703.836;368.78083
 631.72;  288.446;  -36.630;31831.287;325.07536
 632.30;  285.353;  -44.926;31650.430;330.27847
 632.88;  271.351;  -56.627;31645.305;327.97794
 633.46;  282.758;  -48.723;31591.738;331.48089
 634.04;  289.750;  -20.727;31630.781;310.47743
 634.62;  320.356;   13.576;31356.793;306.77987
 635.20;  301.653;   -5.226;31504.246;306.87884
 635.78;  245.054;  -48.825;31576.955;293.87905
 636.36;  227.553;  -48.025;31361.947;275.57888
 636.94;  304.646;   18.171;31584.695;286.47555
 637.52;  243.249;  -31.428;31522.854;274.67682
 638.10;  200.749;  -67.128;31509.953;267.87680
 638.68;  227.347;  -30.029;31569.314;257.37596
 639.26;  241.358;  -15.123;31614.053;256.48120
 639.84;  295.056;   30.876;31718.201;264.18007
 640.42;  195.254;  -48.125;31593.980;243.37923
 641.00;  157.254;  -72.625;31727.652;229.87937
 641.58;  191.855;  -32.725;31806.523;224.57951
 642.16;  186.455;  -36.525;31878.197;222.97964
 642.74;  192.155;  -15.124;32005.869;207.27978
 643.32;  195.956;  -16.024;32003.541;211.97992
 643.90;  193.756;  -24.724;31874.514;218.48005
 644.47;  167.456;  -33.924;31967.086;201.38019
 645.05;  156.457;  -43.024;32259.957;199.48033
 645.63;  157.757;  -29.624;32513.930;187.38046
 646.21;  161.757;  -40.423;32526.102;202.18060
 646.79;  164.457;  -18.323;32665.674;182.78073
 647.37;  136.058;  -48.523;32710.047;184.58087
 647.95;  192.558;   11.777;32776.320;180.78101
 648.53;  166.758;  -17.623;32969.391;184.38114
 649.11;  114.059;  -59.123;33030.465;173.18128
 649.69;  119.459;  -62.923;33200.035;182.38142
 650.27;  120.659;  -37.322;33310.707;157.98155
 650.85;  111.659;  -50.422;33928.180;162.08169
 651.42;   96.560;  -54.322;34418.152;150.88183
 652.00;   77.760;  -69.822;34969.625;147.58196
 652.58;  111.160;  -42.522;35191.797;153.68210
 653.16;  107.361;  -49.022;36135.668;156.38223
 653.74;  139.961;  -19.021;36648.441;158.98237
 654.32;  147.061;    0.879;37165.813;146.18251
 654.90;  109.262;  -21.321;37183.387;130.58264
 655.48;   83.762;  -53.621;36928.457;137.38278
 656.05;   59.562;  -79.821;36971.133;139.38292
 656.63;   93.162;  -44.121;37052.504;137.28305
 657.21;  107.563;  -39.120;36949.676;146.68319
 657.79;  148.763;   20.480;36851.949;128.28332
 658.37;  230.463;   92.380;36239.219;138.08346
 658.95;   83.164;  -40.820;35664.891;123.98360
 659.53;   91.264;  -26.220;35354.664;117.48373
 660.10;   64.564;  -46.620;34605.535;111.18387
 660.68;   69.865;  -48.119;34863.910;117.98401
 661.26;   82.765;  -22.219;34861.480;104.98414
 661.84;   83.065;   -6.319;34877.855;89.38428
 662.42;   76.365;  -33.619;34987.824;109.98442
 663.00;  127.566;    2.181;35223.297;125.38455
 663.57;   76.266;  -25.819;35418.969;102.08469
 664.15;   40.766;  -59.519;35596.441;100.28482
 664.73;   90.767;  -22.218;35720.516;112.98496
 665.31;   54.567;  -41.418;35988.887;95.98510
 665.89;   74.467;  -33.618;36325.660;108.08523
 666.46;   33.067;  -65.918;36449.031;98.98537
 667.04;   35.968;  -67.318;36462.703;103.28551
 667.62;   38.168;  -53.018;36704.078;91.18564
 668.20;   77.268;  -13.117;36966.848;90.38578
 668.78;   53.569;  -47.417;37359.223;100.98592
 669.35;  247.369;  130.883;37649.895;116.48605
 669.93;   41.869;  -43.617;37991.066;85.48619
 670.51;    8.470;  -76.017;38145.738;84.48632
 671.09;   32.770;  -49.617;38209.109;82.38646
 671.66;   73.870;  -13.216;38580.684;87.08660
 672.24;   18.570;  -62.016;38670.656;80.58673
 672.82;   61.371;  -34.916;39357.125;96.28687
 673.40;   14.971;  -60.016;39317.500;74.98701
 673.97;   58.971;  -39.716;39754.371;98.68714
 674.55;    1.172;  -69.416;40012.742;70.58728
 675.13;   59.772;  -27.216;40245.215;86.98742
 675.71;   -2.928;  -81.115;40351.789;78.18755
 676.28;   49.072;  -32.215;40497.563;81.28769
 676.86;   52.073;  -35.215;40881.934;87.28782
 677.44;   40.073;  -39.115;41243.406;79.18796
 678.01;   11.373;  -56.715;41566.777;68.08810
 678.59;   20.974;  -41.615;41856.949;62.58823
 679.17;   65.174;  -15.414;42126.723;80.58837
 679.75;   23.074;  -61.014;42527.496;84.08851
 680.32;    2.375;  -63.114;42799.965;65.48864
 680.90;    5.675;  -73.114;42983.039;78.78878
 681.48;   33.675;  -35.014;43704.012;68.68892
 682.05;   66.275;  -15.214;43718.582;81.48905
 682.63;  -21.524;  -83.013;44042.055;61.48919
 683.21;   18.576;  -66.313;44531.629;84.88932
 683.78;   19.076;  -48.413;44788.398;67.48946
 684.36;    2.677;  -67.313;44854.273;69.98960
 684.94;   -9.623;  -70.513;45147.445;60.88973
 685.52;    5.877;  -45.613;45579.016;51.48987
 686.09;  -12.022;  -63.112;45676.688;51.09001
 686.67;  -15.122;  -72.812;45566.063;57.69014
 687.25;   10.478;  -34.212;45785.234;44.69028
 687.82;  -13.922;  -59.912;45951.406;45.99041
 688.40;   10.979;  -33.312;46290.379;44.29055
 688.97;   -3.421;  -63.312;46223.852;59.89069
 689.55;  -19.021;  -73.912;46394.621;54.89082
 690.13;   24.680;  -32.711;46349.594;57.39096
 690.70;   54.380;    3.589;46622.266;50.79110
 691.28;    8.180;  -30.511;46828.539;38.69123
 691.86;   28.980;  -26.811;47108.512;55.79137
 692.43;  -20.619;  -49.811;47368.785;29.19151
 693.01;   -4.119;  -48.211;47615.758;44.09164
 693.59;   52.181;    4.790;47501.730;47.39178
 694.16;  -14.918;  -71.310;47670.801;56.39191
 694.74;   20.582;  -35.810;48102.574;56.39205
 695.31;  -20.918;  -67.010;48244.445;46.09219
 695.89;  -30.017;  -65.610;48315.719;35.59232
 696.47;  -33.917;  -65.310;48414.789;31.39246
 697.04;   69.283;   27.591;48520.863;41.69260
 697.62;   20.283;  -11.709;48766.734;31.99273
 698.19;   14.284;  -43.109;48808.207;57.39287
 698.77;   32.184;  -14.509;49016.680;46.69301
 699.34;    8.584;  -23.609;49065.551;32.19314
 699.92;   15.685;  -31.909;49022.223;47.59328
 700.50;  -28.015;  -62.509;49321.195;34.49341
 701.07;  -14.215;  -41.808;49435.668;27.59355
 701.65;    1.785;  -40.408;49736.641;42.19369
 702.22;   22.586;  -27.708;49895.914;50.29382
 702.80;   22.986;  -12.708;49964.785;35.69396
 703.37;   23.686;  -17.408;50193.457;41.09410
 703.95;   30.887;  -25.908;50479.629;56.79423
 704.52;   -5.813;  -36.807;50941.102;30.99437
 705.10;  -22.713;  -71.907;51257.973;49.19451
 705.68;  -28.612;  -71.807;51457.348;43.19464
 706.25;  -22.112;  -51.107;51790.617;28.99478
 706.83;   11.588;  -19.407;51709.492;30.99491
 707.40;   42.788;   -5.507;51802.363;48.29505
 707.98;   -4.011;  -32.306;52174.938;28.29519
 708.55;  -18.011;  -41.406;52212.406;23.39532
 709.13;  -13.811;  -39.006;52351.980;25.19546
 709.70;   26.090;  -10.106;52634.453;36.19560
 710.28;    0.590;  -34.606;52829.727;35.19573
 710.85;  -14.110;  -46.506;52866.598;32.39587
 711.43;  -33.009;  -57.805;53221.270;24.79601
 712.00;   41.791;    4.195;53035.141;37.59614
 712.58;  -11.909;  -32.305;53267.813;20.39628
 713.15;   12.891;  -18.105;53512.387;30.99641
 713.73;  133.492;  106.895;53688.059;26.59655
 714.30;   23.192;   -7.605;53973.031;30.79669
 714.88;  -30.708;  -56.705;53874.602;25.99682
 715.45;    5.093;  -12.804;54110.676;17.89696
 716.03;   -9.007;  -38.504;54504.449;29.49710
 716.60;   -2.407;  -36.304;54248.020;33.89723
 717.17;  -16.107;  -50.204;54334.492;34.09737
 717.75;    7.494;  -28.204;54719.965;35.69750
 718.32;   17.794;   -5.404;54422.438;23.19764
 718.90;  -19.406;  -44.003;54219.508;24.59778
 719.47;    2.995;  -34.803;54395.980;37.79791
 720.05;   14.495;  -19.203;54543.352;33.69805
 720.62;  -17.405;  -32.503;54725.727;15.09819
 721.20;   25.496;    1.497;54603.398;23.99832
 721.77;    2.096;  -13.003;54810.770;15.09846
 722.34;   -4.204;  -25.502;54964.742;21.29860
 722.92;  -35.704;  -69.302;54886.816;33.59873
 723.49;  -69.603;  -86.002;55052.387;16.39887
 724.07;    4.397;  -14.402;55315.660;18.79900
 724.64;  -20.303;  -38.502;55283.133;18.19914
 725.21;   -8.502;  -36.502;55661.605;27.99928
 725.79;   10.398;  -14.802;55881.777;25.19941
 726.36;   -6.402;  -24.801;56024.648;18.39955
 726.94;   -5.802;  -42.201;56315.820;36.39969
 727.51;  -17.501;  -31.701;56807.895;14.19982
 728.08;  -18.701;  -40.401;56846.766;21.69996
 728.66;   -8.501;  -36.201;57255.438;27.70010
 729.23;  -32.000;  -46.301;57826.512;14.30023
 729.80;  -48.100;  -65.500;57723.582;17.40037
 730.38;   -3.400;  -24.600;58136.555;21.20050
 730.95;  -14.499;  -48.200;58380.727;33.70064
 731.53;   19.201;  -19.900;58386.398;39.10078
 732.10;    3.801;  -26.100;58444.473;29.90091
 732.67;  -19.799;  -49.900;58673.445;30.10105
 733.25;   21.102;   13.001;58645.816; 8.10119
 733.82;  -28.798;  -41.199;58935.488;12.40132
 734.39;   -2.898;  -26.699;59133.359;23.80146
 734.97;  -35.297;  -48.699;59207.234;13.40160
 735.54;   36.903;   24.901;59275.906;12.00173
 736.11;   -9.597;  -27.699;59227.777;18.10187
 736.69;   37.904;   21.402;59661.551;16.50200
 737.26;   -3.496;  -17.298;59761.621;13.80214
 737.83;  -30.196;  -53.198;59570.594;23.00228
 738.41;  -36.696;  -65.298;59493.766;28.60241
 738.98;  -28.995;  -44.998;59380.039;16.00255
 739.55;   14.205;    2.402;59269.609;11.80269
 740.12;  -10.795;  -43.198;59404.781;32.40282
 740.70;  -49.194;  -58.897;59095.055; 9.70296
 741.27;  -56.194;  -58.297;59266.027; 2.10310
 741.84;  -59.394;  -78.697;58997.301;19.30323
 742.42;  -39.094;  -47.997;58935.172; 8.90337
 742.99;   23.207;    2.903;59108.945;20.30350
 743.56;  -20.593;  -38.597;58782.516;18.00364
 744.13;  -47.593;  -60.096;58925.988;12.50378
 744.71;  130.508;   98.204;59260.961;32.30391
 745.28;   -3.592;  -24.796;59793.035;21.20405
 745.85;  -22.392;  -48.396;60592.605;26.00419
 746.42;  -17.291;  -34.996;60780.477;17.70432
 747.00;  -10.791;  -27.496;60843.250;16.70446
 747.57;  108.709;   94.605;61990.422;14.10459
 748.14;  -33.391;  -42.195;62691.895; 8.80473
 748.71;   -5.190;  -16.295;62852.969;11.10487
 749.29;   16.310;  -22.195;63047.340;38.50500
 749.86;  -15.090;  -34.295;62964.410;19.20514
 750.43;  -30.089;  -37.195;62938.785; 7.10528
 751.00;  -49.689;  -60.395;63066.457;10.70541
 751.58;  -36.589;  -53.194;62976.328;16.60555
 752.15;  139.311;  103.706;62703.602;35.60569
 752.72;  -51.788;  -67.394;62198.273;15.60582
 753.29;   91.312;   53.406;61943.344;37.90596
 753.86;  -36.688;  -64.594;61476.219;27.90609
 754.44;   -2.487;  -19.394;60961.590;16.90623
 755.01;  -44.787;  -43.793;61186.664;-0.99363
 755.58;  -32.487;  -41.493;61188.133; 9.00650
 756.15;  -13.486;  -33.793;61287.309;20.30664
 756.72;    9.814;   -8.993;61241.980;18.80678
 757.29;  -21.986;  -25.193;61520.852; 3.20691
 757.87;  -47.686;  -66.893;61177.625;19.20705
 758.44;  -30.085;  -49.592;61340.598;19.50719
 759.01;  -17.285;  -33.492;61652.770;16.20732
 759.58;  -60.885;  -61.392;61150.539; 0.50746
 760.15;    5.416;  -19.092;61244.414;24.50759
 760.72;  -44.984;  -66.892;61275.887;21.90773
 761.30;  -57.084;  -57.292;61491.059; 0.20787
 761.87;  -17.883;  -23.091;61700.730; 5.20800
 762.44;  -55.583;  -58.191;61389.602; 2.60814
 763.01;   -3.983;  -12.991;61658.973; 9.00828
 763.58;  -14.883;  -14.891;61295.145; 0.00841
 764.15;    0.218;  -24.191;61126.418;24.40855
 764.72;  -14.082;  -36.591;61225.391;22.50869
 765.30;  -48.782;  -56.491;60961.664; 7.70882
 765.87;  -26.781;  -36.690;60665.336; 9.90896
 766.44;   35.519;   14.410;60815.809;21.10909
 767.01;   23.219;    3.110;60390.180;20.10923
 767.58;  -77.781;  -90.290;60249.254;12.50937
 768.15;    8.120;    4.410;60025.125; 3.70950
 768.72;  -46.480;  -60.090;60071.797;13.60964
 769.29;  -44.880;  -67.089;59639.867;22.20978
 769.86;    4.621;  -23.589;59723.941;28.20991
 770.43;  -65.879;  -70.789;59481.012; 4.91005
 771.00;  -26.779;  -23.889;59468.387;-2.88981
 771.58;   -4.778;  -28.989;59318.758;24.21032
 772.15;  -37.478;  -52.189;58759.230;14.71046
 772.72;  -22.378;  -37.988;58501.004;15.61059
 773.29;  -18.978;  -35.288;58823.375;16.31073
 773.86;  -62.277;  -63.988;58642.848; 1.71087
 774.43;  -23.777;  -45.688;58347.719;21.91100
 775.00;  -16.277;  -35.588;58084.594;19.31114
 775.57;  -11.376;  -19.788;58187.266; 8.41128
 776.14;   -7.276;  -18.088;57666.438;10.81141
 776.71;   -5.276;   -8.287;57754.707; 3.01155
 777.28;  -32.176;  -40.287;57916.582; 8.11168
 777.85;  -38.775;  -35.687;57633.352;-3.08818
 778.42;   -5.875;  -21.987;57701.227;16.11196
 778.99;   -5.475;   -5.487;57689.199; 0.01209
 779.56;  -41.874;  -38.687;57683.570;-3.18777
 780.13;  -22.274;  -32.086;57522.441; 9.81237
 780.70;   -3.274;   -9.286;57127.715; 6.01250
 781.27;  -13.373;   -7.286;57373.688;-6.08736
 781.84;  -48.973;  -46.486;57035.359;-2.48722
 782.41;   -2.973;    2.714;57011.230;-5.68709
 782.98;  -25.273;  -40.186;56933.703;14.91305
 783.55;  -11.972;  -26.885;56749.277;14.91318
 784.12;    0.128;   -8.485;56663.449; 8.61332
 784.69;    5.528;   -0.885;56571.520; 6.41346
 785.26;  -26.471;  -38.585;56155.594;12.11359
 785.83;  -56.071;  -65.785;56493.266; 9.71373
 786.40;   -1.271;    0.715;56145.137;-1.98613
 786.97;    4.330;    3.616;56138.109; 0.71400
 787.54;   17.230;   10.016;55947.883; 7.21414
 788.11;   13.830;    3.716;55781.355;10.11428
 788.68;  -35.570;  -43.284;55704.926; 7.71441
 789.25;  -17.069;  -19.784;55524.000; 2.71455
 789.82;   -4.069;  -19.184;55552.473;15.11468
 790.39;  -12.569;  -20.284;55451.941; 7.71482
 790.96;  -32.068;  -30.183;55430.816;-1.88504
 791.52;  -35.168;  -42.683;55217.586; 7.51509
 792.09;   29.032;   20.717;55290.262; 8.31523
 792.66;   -5.668;  -17.783;54793.531;12.11537
 793.23;   43.333;   29.917;54894.703;13.41550
 793.80;   -2.767;  -20.883;54770.176;18.11564
 794.37;   -0.567;  -12.482;54456.648;11.91578
 794.94;   -0.766;  -15.882;54176.121;15.11591
 795.51;  -18.766;  -28.782;54046.492;10.01605
 796.08;  -17.666;  -24.282;53871.066; 6.61618
 796.65;  -39.965;  -32.682;53578.039;-7.28368
 797.21;   14.735;   15.018;53301.109;-0.28354
 797.78;    4.435;   -2.581;52997.883; 7.01659
 798.35;   36.135;   21.219;52509.055;14.91673
 798.92;  577.936;  513.919;52532.129;64.01687
 799.49;  -30.864;  -35.681;52089.301; 4.81700
 800.06;   37.436;   28.719;51915.273; 8.71714
 800.63;   24.037;   14.719;51659.145; 9.31728
 801.20;  -13.763;   -5.981;51781.215;-7.78259
 801.76;    1.437;  -16.280;51808.391;17.71755
 802.33;   -6.163;  -19.980;51489.063;13.81768
 802.90;   29.538;   13.720;51322.234;15.81782
 803.47;   -4.262;  -18.880;51648.906;14.61796
 804.04;  -27.762;  -35.980;51628.277; 8.21809
 804.61;   28.139;   19.920;51369.352; 8.21823
 805.17;  -23.061;  -29.679;51365.223; 6.61837
 805.74;  -21.161;  -39.079;51444.695;17.91850
 806.31;   12.340;   -5.479;51037.367;17.81864
 806.88;  -49.960;  -54.379;51096.238; 4.41877
 807.45;  -52.560;  -68.279;50997.012;15.71891
 808.01;  -12.260;  -10.179;50947.582;-2.08095
 808.58;   40.641;   46.122;50841.555;-5.48082
 809.15;   12.741;   -2.878;50956.328;15.61932
 809.72;   27.841;   -0.878;50689.500;28.71946
 810.29;   -7.158;  -17.978;50169.973;10.81959
 810.85;  -14.758;  -26.178;50108.844;11.41973
 811.42;  -16.858;  -28.178;49628.117;11.31987
 811.99;  -15.357;  -21.777;49373.191; 6.42000
 812.56;  -26.557;  -33.177;48973.660; 6.62014
 813.12;   -6.957;   -3.077;48451.535;-3.87973
 813.69;    1.243;  -13.577;48256.105;14.82041
 814.26;  -10.256;  -20.277;47696.578;10.02055
 814.83;  -16.256;  -31.777;47276.250;15.52068
 815.39;  -39.956;  -59.377;47147.422;19.42082
 815.96;   13.045;  -17.676;46894.797;30.72096
 816.53;   55.745;   31.324;46686.770;24.42109
 817.10;  -21.655;  -36.476;46572.539;14.82123
 817.66;  -51.255;  -62.676;46288.414;11.42137
 818.23;  -58.054;  -64.176;46067.184; 6.12150
 818.80;  -40.854;  -57.476;45888.656;16.62164
 819.37;   -8.954;  -14.975;45872.930; 6.02177
 819.93;  -44.853;  -52.875;45789.703; 8.02191
 820.50;  -58.253;  -60.375;45226.676; 2.12205
 821.07;  -47.453;  -53.175;45200.645; 5.72218
 821.63;   95.648;   55.925;44835.719;39.72232
 822.20;   79.048;   64.025;44818.590;15.02246
 822.77;   -5.852;  -15.174;44641.164; 9.32259
 823.34;  -24.752;  -35.774;44447.734;11.02273
 823.90;  -32.551;  -36.574;44150.906; 4.02287
 824.47;   -5.051;  -11.074;44035.379; 6.02300
 825.04;  -24.251;  -41.474;43910.254;17.22314
 825.60;   -6.950;  -14.574;43882.324; 7.62327
 826.17;  -52.050;  -55.874;43471.496; 3.82341
 826.74;  -34.550;  -44.173;43311.770; 9.62355
 827.30;  -48.550;  -53.173;42923.641; 4.62368
 827.87;  -17.649;  -20.273;42849.914; 2.62382
 828.43;  -22.749;  -26.873;42678.484; 4.12396
 829.00;  -50.049;  -65.173;42585.656;15.12409
 829.57;  -10.748;  -25.773;42440.332;15.02423
 830.13;  -71.948;  -73.272;42015.703; 1.32437
 830.70;  -53.848;  -56.972;41864.375; 3.12450
 831.27;  -22.847;  -33.672;41474.148;10.82464
 831.83;  -60.147;  -53.372;41387.020;-6.77523
 832.40;  -15.047;  -22.572;41185.090; 7.52491
 832.97;   11.353;    6.828;41002.664; 4.52505
 833.53;  -36.346;  -43.071;41077.836; 6.72518
 834.10;  -39.746;  -39.071;40836.008;-0.67468
 834.66;  -41.746;  -53.871;40648.781;12.12546
 835.23;  -15.445;  -42.671;40573.055;27.22559
 835.80;  -41.645;  -61.771;40440.824;20.12573
 836.36;  -45.245;  -41.671;40334.199;-3.57414
 836.93;   -4.244;  -18.970;40271.168;14.72600
 837.49;   22.056;   18.630;40151.543; 3.42614
 838.06;  -19.444;  -28.470;40058.313; 9.02627
 838.62;  -25.844;  -48.070;39899.086;22.22641
 839.19;  -24.943;  -37.770;39905.758;12.82655
 839.76;  -32.243;  -32.870;39728.430; 0.62668
 840.32;  -68.643;  -66.470;39485.805;-2.17318
 840.89;  196.358;  172.031;39678.176;24.32696
 841.45;  -24.142;  -25.669;39488.348; 1.52709
 842.02;  -63.542;  -76.369;39167.621;12.82723
 842.58;  -45.842;  -50.069;39187.094; 4.22736
 843.15;   27.159;   -4.269;39180.465;31.42750
 843.71;  -39.141;  -48.569;39060.836; 9.42764
 844.28;  -81.041;  -79.768;38864.809;-1.27223
 844.84;   -6.840;  -21.268;38862.082;14.42791
 845.41;  -47.040;  -51.168;38615.355; 4.12805
 845.97;  -49.640;  -56.768;38402.527; 7.12818
 846.54;  -36.139;  -51.168;38075.898;15.02832
 847.10;  -38.739;  -35.168;38229.371;-3.57154
 847.67;  -54.939;  -58.667;37966.344; 3.72859
 848.23;  -31.739;  -48.767;38067.414;17.02873
 848.80;  -11.538;  -17.467;38042.086; 5.92886
 849.36;  -31.038;  -46.167;37738.262;15.12900
 849.93;  -34.938;  -31.867;37655.934;-3.07086
 850.49;  -33.037;  -39.867;37582.004; 6.82927
 851.06;  -59.637;  -69.367;37505.277; 9.72941
 851.62;  -38.637;  -54.266;37262.051;15.62955
 852.19;  -36.637;  -42.866;37233.020; 6.22968
 852.75;  -51.436;  -60.466;37155.895; 9.02982
 853.32;  -21.136;  -28.666;37105.266; 7.52996
 853.88;  -19.136;  -39.666;36902.438;20.53009
 854.45;    7.065;  -18.166;37137.012;25.23023
 855.01;   24.965;   -2.965;37010.383;27.93036
 855.57;  -32.135;  -51.465;36921.453;19.33050
 856.14;  -59.234;  -63.265;36626.629; 4.03064
 856.70;  -54.234;  -49.365;36714.199;-4.86923
 857.27;  -41.234;  -44.865;36510.172; 3.63091
 857.83;  -71.334;  -84.265;36357.344;12.93105
 858.40;   27.167;   -2.264;36322.215;29.43118
 858.96;  -17.933;  -44.364;36140.387;26.43132
 859.52;  -27.533;  -42.264;36171.262;14.73146
 860.09;  -31.132;  -43.564;35921.734;12.43159
 860.65;  -28.832;  -34.264;35764.504; 5.43173
 861.22;  -28.432;  -42.764;35727.977;14.33186
 861.78;  -12.531;  -17.363;35638.051; 4.83200
 862.34;  -42.431;  -50.163;35649.922; 7.73214
 862.91;  -25.131;  -41.863;35682.594;16.73227
 863.47;   86.569;   60.137;35224.566;26.43241
 864.03;  -43.930;  -59.263;35401.738;15.33255
 864.60;   -8.430;  -21.663;35293.512;13.23268
 865.16;  -50.630;  -66.963;35132.184;16.33282
 865.73;  -26.329;  -31.262;35111.855; 4.93295
 866.29;   94.471;   71.938;35043.527;22.53309
 866.85;  -53.529;  -70.162;34721.301;16.63323
 867.42;  -39.929;  -40.162;34616.371; 0.23336
 867.98;  -59.428;  -64.262;34527.145; 4.83350
 868.54;    4.072;  -24.162;34441.617;28.23364
 869.11;  -70.628;  -61.461;34366.289;-9.16623
 869.67;  -36.327;  -42.861;34234.863; 6.53391
 870.23;  -31.327;  -40.861;34228.133; 9.53405
 870.80;  -37.227;  -52.761;33878.707;15.53418
 871.36;  -49.926;  -63.361;33584.379;13.43432
 871.92;   13.774;    8.139;33514.352; 5.63445
 872.48;  -61.526;  -60.360;33352.023;-1.16541
 873.05;  -28.726;  -35.560;33107.297; 6.83473
 873.61;  -36.925;  -45.160;33006.969; 8.23486
 874.17;  -29.425;  -40.060;32897.238;10.63500
 874.74;  -36.425;  -53.560;32747.340;17.13500
 875.30;  -26.525;  -37.760;32872.738;11.23500
 875.86;  -34.325;  -51.360;32962.238;17.03500
 876.42;  -58.725;  -67.560;32924.941; 8.83500
 876.99;  -30.325;  -48.260;32876.039;17.93500
 877.55;  -29.225;  -37.360;32981.738; 8.13500
 878.11;  -21.625;  -22.860;32831.238; 1.23500
 878.68;  -16.725;  -32.460;32682.740;15.73500
 879.24;  -28.525;  -39.460;32631.039;10.93500
 879.80;   -2.425;  -20.160;32451.240;17.73500
 880.36;  -23.325;  -46.060;32387.539;22.73500
 880.92;  -18.425;  -26.660;32337.240; 8.23500
 881.49;  -31.725;  -40.960;32357.840; 9.23500
 882.05;  -30.325;  -23.460;32220.439;-6.86500
 882.61;    9.175;   10.040;32083.240;-0.86500
 883.17;  -30.625;  -41.360;32091.740;10.73500
 883.74;  -30.425;  -34.960;32096.439; 4.53500
 884.30;  -44.725;  -64.260;31958.539;19.53500
 884.86;    9.675;   -1.260;32176.439;10.93500
 885.42;  -39.025;  -51.460;32150.439;12.43500
 885.98;  -54.725;  -57.160;32145.740; 2.43500
 886.55;  -32.325;  -37.560;32321.740; 5.23500
 887.11;  -23.525;  -30.260;32423.840; 6.73500
 887.67;  -22.825;  -20.460;32421.840;-2.36500
 888.23;  -45.525;  -65.360;32570.340;19.83500
 888.79;    4.075;  -21.260;32596.740;25.33500
 889.35;  -43.225;  -61.160;32642.240;17.93500
 889.92;   -0.325;  -17.060;32765.641;16.73500
 890.48;  140.875;  103.240;32825.039;37.63500
 891.04;  -34.025;  -43.860;32990.238; 9.83500
 891.60;  -52.325;  -53.960;33047.441; 1.63500
 892.16;  -12.425;  -20.360;33188.941; 7.93500
 892.72;  -45.225;  -52.660;33357.141; 7.43500
 893.29;  -50.125;  -67.860;33494.738;17.73500
 893.85;  -35.325;  -38.260;33665.738; 2.93500
 894.41;  -76.625;  -50.860;33926.641;-25.76500
 894.97;    9.975;  -10.160;33988.340;20.13500
 895.53;  -39.525;  -52.860;34219.238;13.33500
 896.09;  -36.725;  -52.360;34269.340;15.63500
 896.65;  -42.525;  -45.760;34260.641; 3.23500
 897.21;  -18.925;  -11.360;34229.039;-7.56500
 897.77;  -28.425;  -39.360;34355.941;10.93500
 898.34;  -25.825;  -35.160;34076.141; 9.33500
 898.90;  -12.225;  -22.960;33978.840;10.73500
 899.46;  -12.125;  -22.260;34144.141;10.13500
 900.02;   11.475;    5.240;33674.641; 6.23500
 900.58;  -23.425;  -25.260;33671.941; 1.83500
 901.14;   15.775;   11.740;33538.441; 4.03500
 901.70;   -4.225;  -14.960;33275.141;10.73500
 902.26;  -54.625;  -55.160;33006.840; 0.53500
 902.82;    8.575;   -4.560;33014.641;13.13500
 903.38;  -40.425;  -45.360;32705.539; 4.93500
 903.94;   -9.825;  -10.360;32674.340; 0.53500
 904.50;  -37.325;  -32.260;32451.039;-5.06500
 905.06;   -7.425;  -40.660;32229.039;33.23500
 905.62;  -17.625;  -22.960;31916.439; 5.33500
 906.18;  -21.925;  -39.760;31805.539;17.83500
 906.74;  -64.025;  -67.460;31546.039; 3.43500
 907.30;   20.675;   -3.160;31284.939;23.83500
 907.86;    8.775;   -7.460;31088.240;16.23500
 908.42;   18.075;   20.040;30928.240;-1.96500
 908.98;    5.475;    4.940;30791.240; 0.53500
 909.54;   -8.825;  -10.960;30862.939; 2.13500
 910.10;   17.475;    7.340;30640.740;10.13500
 910.66;   -6.725;  -22.660;30446.240;15.93500
 911.22;  -25.325;  -22.860;30321.141;-2.46500
 911.78;  -67.725;  -62.760;29941.939;-4.96500
 912.34;   -1.725;    0.540;29914.439;-2.26500
 912.90;   37.375;    8.240;29777.039;29.13500
 913.46;  -52.125;  -57.660;29485.039; 5.53500
 914.02;  -20.325;  -50.860;29482.439;30.53500
 914.58;  -35.425;  -34.560;29279.641;-0.86500
 915.14;  -34.625;  -39.560;29122.939; 4.93500
 915.70;  -20.025;  -26.460;29026.539; 6.43500
 916.26;   -5.025;  -11.060;28810.641; 6.03500
 916.82;  -33.325;  -53.760;28635.939;20.43500
 917.38;   18.975;   -4.360;28403.039;23.33500
 917.94;  100.375;   77.740;28214.240;22.63500
 918.50;  -19.625;  -43.160;28052.641;23.53500
 919.06;    4.375;  -12.660;27890.340;17.03500
 919.62;  -44.125;  -44.260;27654.439; 0.13500
 920.18;  -20.125;  -19.560;27634.840;-0.56500
 920.73;  -20.525;  -28.760;27550.340; 8.23500
 921.29;  -31.025;  -39.960;27017.641; 8.93500
 921.85;   -9.025;  -19.360;27000.840;10.33500
 922.41;  -47.425;  -48.960;26863.840; 1.53500
 922.97;  -20.225;  -28.260;26599.539; 8.03500
 923.53;   25.275;    6.840;26105.939;18.43500
 924.09;  -22.625;  -39.960;26005.141;17.33500
 924.65;  -40.825;  -44.460;25817.740; 3.63500
 925.21;  -27.325;  -38.360;25588.039;11.03500
 925.76;  -28.825;  -37.160;25424.439; 8.33500
 926.32;   -3.625;  -18.460;25229.539;14.83500
 926.88;  -35.025;  -26.860;25060.340;-8.16500
 927.44;  -21.125;  -30.560;24711.039; 9.43500
 928.00;  118.475;  103.140;24361.641;15.33500
 928.56;   -3.825;  -24.160;24109.539;20.33500
 929.12;  -14.125;  -22.460;23807.740; 8.33500
 929.67;   16.975;   11.240;23666.840; 5.73500
 930.23;  -49.425;  -44.060;23355.141;-5.36500
 930.79;  -15.125;  -22.260;22957.439; 7.13500
 931.35;  -29.025;  -33.760;22612.039; 4.73500
 931.91;  -38.925;  -43.460;22275.939; 4.53500
 932.46;   -1.525;  -17.460;21815.141;15.93500
 933.02;  -34.925;  -44.760;21264.539; 9.83500
 933.58;  -38.325;  -48.760;20844.740;10.43500
 934.14;  -66.525;  -75.860;20402.141; 9.33500
 934.70;  -37.925;  -52.060;19642.840;14.13500
 935.25;  -27.025;  -32.560;19307.439; 5.53500
 935.81;   57.275;   46.540;18676.840;10.73500
 936.37;  -26.425;  -41.860;17979.240;15.43500
 936.93;    7.975;    4.940;17501.539; 3.03500
 937.49;  -18.425;  -33.060;16906.439;14.63500
 938.04;  -20.225;  -27.860;16194.840; 7.63500
 938.60;  -51.025;  -49.460;15755.940;-1.56500
 939.16;  -31.125;  -41.560;15186.640;10.43500
 939.72;  -55.125;  -45.660;14717.140;-9.46500
 940.27;   12.275;    5.340;14265.840; 6.93500
 940.83;  -22.025;  -30.960;14046.340; 8.93500
 941.39;   -9.625;  -21.960;13687.040;12.33500
 941.94;  -64.725;  -74.960;13350.740;10.23500
 942.50;  -18.625;  -32.560;13158.740;13.93500
 943.06;  -17.825;    5.340;13027.240;-23.16500
 943.62;    2.375;    9.540;12943.740;-7.16500
 944.17;    5.075;  -21.460;12754.540;26.53500
 944.73;   34.975;   20.940;12761.440;14.03500
 945.29;    1.675;  -10.860;12770.440;12.53500
 945.84;  -39.825;  -58.560;12694.340;18.73500
 946.40;  -56.625;  -63.660;12711.140; 7.03500
 946.96;    7.975;    1.240;12656.240; 6.73500
 947.52;  -35.525;  -40.660;12695.840; 5.13500
 948.07;  -23.625;  -35.260;12718.240;11.63500
 948.63;   26.875;   21.340;12818.540; 5.53500
 949.19;  -14.225;  -30.760;12749.440;16.53500
 949.74;  -78.325;  -80.460;12760.940; 2.13500
 950.30;  -19.425;  -30.260;12769.340;10.83500
 950.85;   -6.825;  -22.260;12864.940;15.43500
 951.41;  -51.525;  -58.160;12893.340; 6.63500
 951.97;    5.275;    5.540;12921.640;-0.26500
 952.52;   -7.525;  -11.260;12865.640; 3.73500
 953.08;  -33.725;  -37.660;12883.640; 3.93500
 953.64;  -18.325;  -29.560;12846.440;11.23500
 954.19;   18.175;   -1.760;12893.040;19.93500
 954.75;   16.375;   10.140;12872.140; 6.23500
 955.31;   25.375;    8.440;12867.940;16.93500
 955.86;  -40.325;  -51.160;12774.540;10.83500
 956.42;  -31.125;  -47.560;12672.940;16.43500
 956.97;  -45.625;  -60.260;12694.140;14.63500
 957.53;  -21.925;  -30.260;12611.240; 8.33500
 958.09;  -16.525;  -20.760;12552.340; 4.23500
 958.64;  -20.625;  -20.260;12570.040;-0.36500
 959.20;   -0.725;  -21.960;12548.940;21.23500
 959.75;  -30.525;  -29.960;12427.440;-0.56500
 960.31;  -22.825;  -33.860;12418.840;11.03500
 960.86;   40.275;   19.440;12464.640;20.83500
 961.42;  -17.925;  -29.560;12414.340;11.63500
 961.98;  -47.925;  -50.460;12345.240; 2.53500
 962.53;  -32.125;  -42.460;12397.740;10.33500
 963.09;   37.775;   11.640;12366.040;26.13500
 963.64;    7.575;    6.040;12375.340; 1.53500
 964.20;  -54.325;  -62.260;12267.840; 7.93500
 964.75;  -24.725;  -24.260;12291.440;-0.46500
 965.31;  -54.425;  -74.160;12248.040;19.73500
 965.86;  -24.625;  -36.360;12229.140;11.73500
 966.42;   27.675;   34.440;12234.340;-6.76500
 966.97;   34.275;    3.540;12259.840;30.73500
 967.53;  -13.325;  -22.060;12095.440; 8.73500
 968.08;  -31.925;  -47.460;12157.440;15.53500
 968.64;   13.875;   -7.160;12042.340;21.03500
 969.19;   10.575;   -3.160;12075.540;13.73500
 969.75;   22.575;   14.040;12006.840; 8.53500
 970.30;    5.575;   -8.460;12064.140;14.03500
 970.86;    6.375;   -6.260;11971.840;12.63500
 971.41;  -28.825;  -25.960;11845.240;-2.86500
 971.97;   -2.225;  -14.860;11835.640;12.63500
 972.52;  -61.425;  -55.660;11665.740;-5.76500
 973.08;   26.375;   18.540;11714.240; 7.83500
 973.63;   57.575;   39.540;11663.040;18.03500
 974.19;   -2.525;   -9.060;11593.140; 6.53500
 974.74;   -2.225;  -14.360;11666.640;12.13500
 975.29;  236.075;  203.340;11620.240;32.73500
 975.85;   38.075;   32.040;11558.040; 6.03500
 976.40;   19.375;    8.740;11484.040;10.63500
 976.96;   15.075;    4.240;11406.940;10.83500
 977.51;  -25.825;  -29.860;11398.840; 4.03500
 978.07;  -31.725;  -31.760;11290.240; 0.03500
 978.62;    8.175;    1.440;11281.240; 6.73500
 979.17;  334.475;  273.840;11228.340;60.63500
 979.73;  -19.525;  -36.360;11150.440;16.83500
 980.28;   10.775;    6.440;11178.640; 4.33500
 980.84;    4.575;    7.040;11049.840;-2.46500
 981.39;  -32.125;  -30.960;11067.040;-1.16500
 981.94;    7.075;    4.640;10985.940; 2.43500
 982.50;   -5.925;  -14.560;10875.540; 8.63500
 983.05;    5.375;   -3.160;10793.640; 8.53500
 983.60;   58.775;   45.340;10866.340;13.43500
 984.16;   25.775;   18.140;10723.040; 7.63500
 984.71;   17.775;    0.140;10737.640;17.63500
 985.27;  -17.025;  -30.160;10610.940;13.13500
 985.82;   10.375;    5.540;10600.940; 4.83500
 986.37;   27.475;   20.340;10579.940; 7.13500
 986.93;    8.175;   -7.560;10493.140;15.73500
 987.48;  -35.725;  -38.060;10429.940; 2.33500
 988.03;   -1.025;  -12.360;10433.640;11.33500
 988.59;  -26.825;  -21.760;10379.140;-5.06500
 989.14;   17.975;   -6.160;10316.040;24.13500
 989.69;  -20.525;  -20.160;10319.540;-0.36500
 990.24;   -6.925;  -22.960;10192.540;16.03500
 990.80;  -41.125;  -35.660;10144.240;-5.46500
 991.35;  -43.725;  -51.160;10015.240; 7.43500
 991.90;    5.575;    1.340;10114.540; 4.23500
 992.46;  -26.025;  -37.460;10020.740;11.43500
 993.01;  -33.525;  -36.260; 9927.640; 2.73500
 993.56;  168.975;  119.940; 9917.940;49.03500
 994.11;    2.675;  -11.460; 9840.440;14.13500
 994.67;  -27.125;  -21.260; 9785.640;-5.86500
 995.22;  -19.325;  -30.460; 9703.340;11.13500
 995.77;  -33.325;  -38.960; 9635.340; 5.63500
 996.33;   -0.925;   -4.560; 9637.840; 3.63500
 996.88;  -33.825;  -27.760; 9517.540;-6.06500
 997.43;  -28.625;  -28.760; 9472.340; 0.13500
 997.98;   27.975;    3.140; 9370.640;24.83500
 998.53;   23.875;   21.740; 9336.240; 2.13500
 999.09;  -13.625;  -30.660; 9233.940;17.03500
 999.64;  -29.725;  -51.060; 9121.140;21.33500
1000.19;  -31.725;  -44.160; 9086.640;12.43500
1000.74;  -43.025;  -57.060; 9052.540;14.03500
1001.30;  -20.925;  -19.160; 8993.240;-1.76500
1001.85;  -27.125;  -25.660; 8888.440;-1.46500
1002.40;  -36.925;  -49.260; 8808.140;12.33500
1002.95;   17.475;    2.840; 8765.740;14.63500
1003.50;   29.975;   15.340; 8714.040;14.63500
1004.06;  -11.725;  -28.160; 8593.740;16.43500
1004.61;  127.275;  109.140; 8532.040;18.13500
1005.16;  168.375;  142.040; 8522.340;26.33500
1005.71;   14.575;   -2.660; 8537.740;17.23500
1006.26;   -4.725;  -31.660; 8503.640;26.93500
1006.81;  -53.025;  -57.860; 8549.940; 4.83500
1007.37;   -5.125;  -12.460; 8518.340; 7.33500
1007.92;  -30.225;  -58.960; 8547.040;28.73500
1008.47;    2.775;   -9.560; 8650.340;12.33500
1009.02;    3.275;  -14.960; 8730.740;18.23500
1009.57;   26.075;    5.940; 8770.540;20.13500
1010.12;  -57.325;  -70.360; 8819.940;13.03500
1010.67;   13.275;   -4.160; 8938.440;17.43500
1011.22;   11.775;    5.640; 9023.540; 6.13500
1011.78;  -30.125;  -42.460; 9062.440;12.33500
1012.33;  -47.825;  -45.560; 9068.940;-2.26500
1012.88;   35.375;   28.740; 9182.740; 6.63500
1013.43;    8.175;  -11.760; 9165.640;19.93500
1013.98;   20.575;    6.840; 9256.140;13.73500
1014.53;  -21.725;  -34.460; 9202.140;12.73500
1015.08;  -26.825;  -44.660; 9159.840;17.83500
1015.63;  -21.125;  -38.860; 9075.540;17.73500
1016.18;  -34.025;  -49.160; 9064.740;15.13500
1016.73;   14.975;    1.040; 8920.440;13.93500
1017.28;   86.375;   59.040; 8837.240;27.33500
1017.84;  -22.125;  -23.560; 8738.740; 1.43500
1018.39;  -10.025;  -27.260; 8609.540;17.23500
1018.94;  -34.225;  -47.760; 8503.540;13.53500
1019.49;   36.475;   14.140; 8362.940;22.33500
1020.04;   51.475;   26.240; 8286.340;25.23500
1020.59;  -24.025;  -34.360; 8098.540;10.33500
1021.14;  -18.625;  -19.960; 8089.340; 1.33500
1021.69;  -22.325;  -47.960; 7874.640;25.63500
1022.24;  -28.925;  -27.460; 7839.140;-1.46500
1022.79;   13.175;   11.940; 7670.040; 1.23500
1023.34;  -20.525;  -24.560; 7596.740; 4.03500
1023.89;  -13.025;  -12.960; 7513.240;-0.06500
1024.44;  -12.725;  -15.060; 7382.240; 2.33500
1024.99;   21.175;    0.040; 7310.940;21.13500
1025.54;   64.475;   33.840; 7213.140;30.63500
1026.09;  -32.225;  -34.860; 7156.540; 2.63500
1026.64;  -23.525;  -36.260; 7033.140;12.73500
1027.19;    6.575;    6.240; 6951.540; 0.33500
1027.74;  -24.725;  -25.360; 6898.540; 0.63500
1028.29;  -14.925;  -39.360; 6785.340;24.43500
1028.84;   71.775;   41.840; 6689.140;29.93500
1029.39;   18.675;    3.440; 6693.440;15.23500
1029.94;  -30.125;  -45.260; 6563.140;15.13500
1030.48;  -25.425;  -47.960; 6489.840;22.53500
1031.03;  -34.625;  -33.460; 6408.040;-1.16500
1031.58;    6.575;   -4.360; 6390.940;10.93500
1032.13;  -43.325;  -46.760; 6251.740; 3.43500
1032.68;  -21.025;  -40.060; 6173.540;19.03500
1033.23;  -37.725;  -40.760; 6056.340; 3.03500
1033.78;  -18.025;  -34.060; 5982.840;16.03500
1034.33;   -9.525;  -18.960; 5956.340; 9.43500
1034.88;   38.175;   24.240; 5884.440;13.93500
1035.43;  -37.825;  -43.260; 5797.040; 5.43500
1035.98;   -9.925;  -24.560; 5726.840;14.63500
1036.52;   18.075;   -7.860; 5703.140;25.93500
1037.07;   11.875;   12.340; 5634.340;-0.46500
1037.62;   15.675;   -7.260; 5538.840;22.93500
1038.17;  107.475;   72.140; 5465.440;35.33500
1038.72;  -22.125;  -21.960; 5419.540;-0.16500
1039.27;  -24.925;  -19.060; 5313.940;-5.86500
1039.82;   16.275;   -9.760; 5277.140;26.03500
1040.37;  -42.825;  -47.360; 5173.340; 4.53500
1040.91;  -29.225;  -44.660; 5135.140;15.43500
1041.46;  -15.425;  -29.060; 5014.240;13.63500
1042.01;  -50.625;  -49.760; 4962.740;-0.86500
1042.56;  -24.425;  -31.860; 4871.240; 7.43500
1043.11;   -5.325;   -9.360; 4860.340; 4.03500
1043.66;   33.475;   24.240; 4779.540; 9.23500
1044.20;    1.675;    2.340; 4738.440;-0.66500
1044.75;   29.175;   14.740; 4683.040;14.43500
1045.30;   36.875;   24.540; 4585.740;12.33500
1045.85;  -13.725;  -25.760; 4510.240;12.03500
1046.40;  -25.525;  -35.760; 4447.940;10.23500
1046.94;  -17.725;  -26.260; 4426.440; 8.53500
1047.49;   -3.225;  -23.660; 4272.140;20.43500
1048.04;   62.575;   37.540; 4311.640;25.03500
1048.59;  -37.925;  -42.360; 4233.240; 4.43500
1049.13;  104.275;   81.140; 4211.040;23.13500
1049.68;  -35.225;  -49.960; 4059.940;14.73500
1050.23;   11.775;   -0.060; 4062.640;11.83500
1050.78;  -56.025;  -55.560; 3990.540;-0.46500
1051.32;  -12.625;  -29.060; 3946.840;16.43500
1051.87;  221.175;  172.040; 3869.840;49.13500
1052.42;   -3.725;  -12.460; 3825.340; 8.73500
1052.97;  185.275;  152.740; 3792.340;32.53500
1053.51;   -7.325;  -20.360; 3734.840;13.03500
1054.06;   22.375;   16.740; 3661.740; 5.63500
1054.61;   11.375;    5.140; 3613.040; 6.23500
1055.16;  -22.325;  -44.160; 3555.440;21.83500
1055.70;   -8.325;  -25.860; 3441.340;17.53500
1056.25;  -46.325;  -59.060; 3388.740;12.73500
1056.80;  -17.125;  -37.360; 3359.040;20.23500
1057.34;  -36.425;  -46.760; 3323.340;10.33500
1057.89;  -23.225;  -38.760; 3294.340;15.53500
1058.44;    8.075;    3.040; 3243.440; 5.03500
1058.98;  -31.825;  -34.660; 3181.040; 2.83500
1059.53;    2.275;  -18.360; 3089.840;20.63500
1060.08;  -11.725;  -21.560; 3095.640; 9.83500
1060.62;   95.975;   80.440; 3037.940;15.53500
1061.17;  -29.525;  -35.060; 2981.040; 5.53500
1061.72;   -8.425;  -17.560; 2925.640; 9.13500
1062.26;   14.675;    0.640; 2887.140;14.03500
1062.81;   16.475;    2.640; 2868.640;13.83500
1063.36;    7.775;   -3.960; 2810.640;11.73500
1063.90;   11.375;    2.840; 2776.140; 8.53500
1064.45;  -11.125;  -15.760; 2733.940; 4.63500
1064.99;   -0.325;  -21.260; 2665.640;20.93500
1065.54;    0.275;  -27.260; 2665.140;27.53500
1066.09;   16.275;    1.540; 2624.740;14.73500
1066.63;    3.475;   -4.460; 2613.240; 7.93500
1067.18;   67.575;   50.140; 2546.940;17.43500
1067.72;    0.075;   -8.860; 2507.940; 8.93500
1068.27;  -24.725;  -31.060; 2435.040; 6.33500
1068.82;   35.975;   24.740; 2427.340;11.23500
1069.36;   18.075;   -1.560; 2384.540;19.63500
1069.91;  -24.925;  -27.160; 2395.540; 2.23500
1070.45;    8.775;   -9.660; 2355.540;18.43500
1071.00;  -30.225;  -43.760; 2277.640;13.53500
1071.54;   -1.725;  -14.260; 2266.040;12.53500
1072.09;   76.975;   61.540; 2286.540;15.43500
1072.64;    8.175;   -2.360; 2225.240;10.53500
1073.18;  101.775;   75.840; 2212.340;25.93500
1073.73;  156.675;  126.340; 2142.340;30.33500
1074.27;  -11.925;  -35.860; 2113.340;23.93500
1074.82;   30.775;    9.440; 2108.140;21.33500
1075.36;   30.575;    9.140; 2087.140;21.43500
1075.91;   18.075;    4.140; 2074.740;13.93500
1076.45;   12.575;   13.340; 2031.240;-0.76500
1077.00;   -2.125;  -14.560; 1990.740;12.43500
1077.54;   17.875;   19.840; 2002.540;-1.96500
1078.09;   17.375;   22.840; 1946.540;-5.46500
1078.63;   -8.225;  -33.660; 1925.340;25.43500
1079.18;    4.075;  -25.660; 1902.340;29.73500
1079.72;   24.975;    8.540; 1872.140;16.43500
1080.27;  -12.825;  -28.260; 1833.740;15.43500
1080.81;   -9.025;  -27.660; 1806.540;18.63500
1081.36;  -28.225;  -49.360; 1759.940;21.13500
1081.90;   69.975;   47.640; 1773.640;22.33500
1082.44;   39.775;   23.340; 1742.540;16.43500
1082.99;   38.275;   14.540; 1720.040;23.73500
1083.53;   -3.425;  -15.760; 1669.840;12.33500
1084.08;   37.775;   12.140; 1694.940;25.63500
1084.62;   18.175;   11.540; 1650.140; 6.63500
1085.17;   13.275;   -6.960; 1644.640;20.23500
1085.71;  -12.525;  -16.460; 1604.940; 3.93500
1086.25;   21.475;   13.040; 1614.040; 8.43500
1086.80;   28.575;   10.940; 1558.740;17.63500
1087.34;   10.875;    0.740; 1549.140;10.13500
1087.89;   -5.425;  -21.460; 1518.340;16.03500
1088.43;    8.375;   12.440; 1515.840;-4.06500
1088.97;   14.475;    3.040; 1494.940;11.43500
1089.52;  200.775;  167.440; 1492.140;33.33500
1090.06;   73.575;   65.840; 1451.240; 7.73500
1090.61;   15.475;    6.040; 1435.740; 9.43500
1091.15;  161.975;  140.040; 1394.140;21.93500
1091.69;   28.975;   17.840; 1365.740;11.13500
1092.24;   15.975;    9.140; 1368.940; 6.83500
1092.78;   48.675;   28.540; 1337.940;20.13500
1093.32;   25.775;   11.840; 1350.740;13.93500
1093.87;   41.575;   16.840; 1327.440;24.73500
1094.41;   -9.225;  -11.260; 1272.140; 2.03500
1094.95;  127.475;  110.440; 1282.440;17.03500
1095.50;  -27.825;  -27.860; 1250.140; 0.03500
1096.04;   45.575;   45.340; 1268.140; 0.23500
1096.58;  158.675;  134.540; 1217.440;24.13500
1097.13;  -10.925;  -25.860; 1182.740;14.93500
1097.67;   60.875;   49.940; 1204.340;10.93500
1098.21;  -15.125;  -16.960; 1162.040; 1.83500
1098.76;    3.075;   -2.160; 1142.840; 5.23500
1099.30;  -13.425;  -14.060; 1130.140; 0.63500
1099.84;   -0.325;  -25.760; 1116.240;25.43500
1100.38;   41.775;   25.840; 1094.240;15.93500

